channel,attention,cued_side,timepoint,erp,time
O2,0,0,0,-3.0008581373547393e-07,-0.1
PO4,0,0,0,-1.5877280525520703e-07,-0.1
P4,0,0,0,-2.3745940513281654e-08,-0.1
P6,0,0,0,-1.0595671138168362e-07,-0.1
P2,0,0,0,2.9757889046622556e-07,-0.1
P1,0,0,0,3.257547451177627e-07,-0.1
P3,0,0,0,2.716439456995791e-07,-0.1
P5,0,0,0,-1.8653400193236553e-07,-0.1
PO3,0,0,0,-3.756538385971601e-07,-0.1
O1,0,0,0,-8.521013151829353e-07,-0.1
Pz,0,0,0,4.903784218556106e-07,-0.1
POz,0,0,0,2.9266259290359114e-07,-0.1
Oz,0,0,0,-6.499490252496592e-07,-0.1
Iz,0,0,0,-7.566503456884085e-07,-0.1
O2,0,0,1,-5.57259025862433e-07,-0.095
PO4,0,0,1,-2.085829030591143e-07,-0.095
P4,0,0,1,3.5259935197242576e-08,-0.095
P6,0,0,1,-2.0797361340455191e-07,-0.095
P2,0,0,1,2.5761661125457166e-07,-0.095
P1,0,0,1,4.784894414048018e-08,-0.095
P3,0,0,1,-2.0176502106554214e-07,-0.095
P5,0,0,1,-6.873807862857497e-07,-0.095
PO3,0,0,1,-7.805067952872998e-07,-0.095
O1,0,0,1,-1.1138799655429027e-06,-0.095
Pz,0,0,1,1.8222221527176172e-07,-0.095
POz,0,0,1,-1.575283306355516e-07,-0.095
Oz,0,0,1,-9.846227652023002e-07,-0.095
Iz,0,0,1,-1.0154409411465138e-06,-0.095
O2,0,0,2,-3.8277237428836534e-07,-0.09000000000000001
PO4,0,0,2,-2.7704278837751226e-07,-0.09000000000000001
P4,0,0,2,1.4952168919016212e-07,-0.09000000000000001
P6,0,0,2,-1.511069933146499e-07,-0.09000000000000001
P2,0,0,2,2.791865359665489e-07,-0.09000000000000001
P1,0,0,2,2.2095407496995862e-07,-0.09000000000000001
P3,0,0,2,1.7459077565615665e-07,-0.09000000000000001
P5,0,0,2,-4.901216821382057e-07,-0.09000000000000001
PO3,0,0,2,-6.032054152939606e-07,-0.09000000000000001
O1,0,0,2,-1.105393135070174e-06,-0.09000000000000001
Pz,0,0,2,3.6563098760306576e-07,-0.09000000000000001
POz,0,0,2,-2.5873390293460033e-07,-0.09000000000000001
Oz,0,0,2,-9.62118516490939e-07,-0.09000000000000001
Iz,0,0,2,-6.776681865616668e-07,-0.09000000000000001
O2,0,0,3,-4.557734075009251e-07,-0.085
PO4,0,0,3,-5.778186580888574e-07,-0.085
P4,0,0,3,1.0538707090991287e-07,-0.085
P6,0,0,3,-1.4865347314975622e-07,-0.085
P2,0,0,3,1.4175609958372575e-07,-0.085
P1,0,0,3,-1.0553400492265516e-07,-0.085
P3,0,0,3,-5.1600020561899534e-08,-0.085
P5,0,0,3,-7.467752691291681e-07,-0.085
PO3,0,0,3,-9.742073804903188e-07,-0.085
O1,0,0,3,-1.4466244257831296e-06,-0.085
Pz,0,0,3,6.534612311040966e-08,-0.085
POz,0,0,3,-6.069225349861009e-07,-0.085
Oz,0,0,3,-1.2870803079540451e-06,-0.085
Iz,0,0,3,-9.640375746944069e-07,-0.085
O2,0,0,4,-6.488970446018394e-07,-0.08
PO4,0,0,4,-7.274764592001239e-07,-0.08
P4,0,0,4,1.4536628826565917e-07,-0.08
P6,0,0,4,-1.2040507846420684e-07,-0.08
P2,0,0,4,-4.5237324848206333e-08,-0.08
P1,0,0,4,-2.6144866608670587e-07,-0.08
P3,0,0,4,6.610353267908647e-08,-0.08
P5,0,0,4,-5.77380684048911e-07,-0.08
PO3,0,0,4,-1.023985949832692e-06,-0.08
O1,0,0,4,-1.2552272999987906e-06,-0.08
Pz,0,0,4,-1.6515126676607288e-07,-0.08
POz,0,0,4,-9.076727211543349e-07,-0.08
Oz,0,0,4,-1.2936113370766026e-06,-0.08
Iz,0,0,4,-7.195463412374452e-07,-0.08
O2,0,0,5,-7.089676420700154e-07,-0.07500000000000001
PO4,0,0,5,-7.717899671578153e-07,-0.07500000000000001
P4,0,0,5,4.0839825232775686e-08,-0.07500000000000001
P6,0,0,5,-1.3479261606760704e-07,-0.07500000000000001
P2,0,0,5,-1.592938940980584e-07,-0.07500000000000001
P1,0,0,5,-4.096838885217442e-07,-0.07500000000000001
P3,0,0,5,-1.1502017976027816e-07,-0.07500000000000001
P5,0,0,5,-9.656898572008064e-07,-0.07500000000000001
PO3,0,0,5,-1.3172024036525074e-06,-0.07500000000000001
O1,0,0,5,-1.4966822521150425e-06,-0.07500000000000001
Pz,0,0,5,-4.6189390982879136e-07,-0.07500000000000001
POz,0,0,5,-1.1449849237674232e-06,-0.07500000000000001
Oz,0,0,5,-1.3014702673273138e-06,-0.07500000000000001
Iz,0,0,5,-7.965636322289585e-07,-0.07500000000000001
O2,0,0,6,-8.281078220355542e-07,-0.07
PO4,0,0,6,-9.855510822591243e-07,-0.07
P4,0,0,6,-2.2283829547124266e-07,-0.07
P6,0,0,6,-4.3514167507282313e-07,-0.07
P2,0,0,6,-1.7706477233557267e-07,-0.07
P1,0,0,6,-5.642145664673162e-07,-0.07
P3,0,0,6,-7.392437946602668e-08,-0.07
P5,0,0,6,-9.310734680452558e-07,-0.07
PO3,0,0,6,-1.369575573240962e-06,-0.07
O1,0,0,6,-1.3004845562377731e-06,-0.07
Pz,0,0,6,-7.13239326362936e-07,-0.07
POz,0,0,6,-1.2314046328016136e-06,-0.07
Oz,0,0,6,-1.4565516618249477e-06,-0.07
Iz,0,0,6,-7.755153923343178e-07,-0.07
O2,0,0,7,-4.858919816008062e-07,-0.065
PO4,0,0,7,-7.397713478793794e-07,-0.065
P4,0,0,7,-1.3401826156208685e-07,-0.065
P6,0,0,7,-2.4657750546303244e-07,-0.065
P2,0,0,7,-3.269286558494303e-07,-0.065
P1,0,0,7,-5.243097522568926e-07,-0.065
P3,0,0,7,-7.90623115482794e-08,-0.065
P5,0,0,7,-5.983184212293705e-07,-0.065
PO3,0,0,7,-1.2059808048940304e-06,-0.065
O1,0,0,7,-9.147689471680135e-07,-0.065
Pz,0,0,7,-6.412791562154016e-07,-0.065
POz,0,0,7,-1.058692811173607e-06,-0.065
Oz,0,0,7,-1.2546350936499006e-06,-0.065
Iz,0,0,7,-3.410315907605688e-07,-0.065
O2,0,0,8,-8.75937018434787e-07,-0.060000000000000005
PO4,0,0,8,-1.1520373882139311e-06,-0.060000000000000005
P4,0,0,8,-2.7387144458608507e-07,-0.060000000000000005
P6,0,0,8,-3.4810671320973753e-07,-0.060000000000000005
P2,0,0,8,-5.944349836845334e-07,-0.060000000000000005
P1,0,0,8,-9.803614102323699e-07,-0.060000000000000005
P3,0,0,8,-3.776904322189154e-07,-0.060000000000000005
P5,0,0,8,-8.846740808232086e-07,-0.060000000000000005
PO3,0,0,8,-1.6019842178755658e-06,-0.060000000000000005
O1,0,0,8,-1.4457185697118142e-06,-0.060000000000000005
Pz,0,0,8,-9.961324079922784e-07,-0.060000000000000005
POz,0,0,8,-1.5131336575960795e-06,-0.060000000000000005
Oz,0,0,8,-1.492926188457942e-06,-0.060000000000000005
Iz,0,0,8,-9.33277411867609e-07,-0.060000000000000005
O2,0,0,9,-5.404909327176509e-07,-0.05500000000000001
PO4,0,0,9,-8.849290098211124e-07,-0.05500000000000001
P4,0,0,9,-2.147360475607444e-07,-0.05500000000000001
P6,0,0,9,-1.6486420408937697e-07,-0.05500000000000001
P2,0,0,9,-3.1603711591295967e-07,-0.05500000000000001
P1,0,0,9,-7.61437181598213e-07,-0.05500000000000001
P3,0,0,9,-2.2789000357518653e-07,-0.05500000000000001
P5,0,0,9,-5.683460682505792e-07,-0.05500000000000001
PO3,0,0,9,-1.392162306113565e-06,-0.05500000000000001
O1,0,0,9,-1.1160081516834495e-06,-0.05500000000000001
Pz,0,0,9,-8.63774218939491e-07,-0.05500000000000001
POz,0,0,9,-1.1575975609588726e-06,-0.05500000000000001
Oz,0,0,9,-1.2272085860805155e-06,-0.05500000000000001
Iz,0,0,9,-5.709471129515584e-07,-0.05500000000000001
O2,0,0,10,-4.7287659086791226e-07,-0.05
PO4,0,0,10,-7.948502033223204e-07,-0.05
P4,0,0,10,-1.7957708392135228e-07,-0.05
P6,0,0,10,-3.509477835786706e-07,-0.05
P2,0,0,10,-1.0086358842475129e-07,-0.05
P1,0,0,10,-5.405712884864317e-07,-0.05
P3,0,0,10,-1.544992426996911e-07,-0.05
P5,0,0,10,-8.031298086905852e-07,-0.05
PO3,0,0,10,-1.3833841405422307e-06,-0.05
O1,0,0,10,-1.254979392984364e-06,-0.05
Pz,0,0,10,-6.842257934544141e-07,-0.05
POz,0,0,10,-1.0654410205002188e-06,-0.05
Oz,0,0,10,-1.4217505375652273e-06,-0.05
Iz,0,0,10,-1.0222517634802537e-06,-0.05
O2,0,0,11,9.245379477331183e-08,-0.045000000000000005
PO4,0,0,11,-2.2822481367305794e-07,-0.045000000000000005
P4,0,0,11,3.303273506518157e-07,-0.045000000000000005
P6,0,0,11,5.2047346623996845e-08,-0.045000000000000005
P2,0,0,11,1.4261024898485273e-07,-0.045000000000000005
P1,0,0,11,-1.619822052670884e-07,-0.045000000000000005
P3,0,0,11,-8.557049956503433e-08,-0.045000000000000005
P5,0,0,11,-4.943368200089849e-07,-0.045000000000000005
PO3,0,0,11,-9.363610494718187e-07,-0.045000000000000005
O1,0,0,11,-7.298696750240392e-07,-0.045000000000000005
Pz,0,0,11,-4.267680104693856e-07,-0.045000000000000005
POz,0,0,11,-5.86626398735432e-07,-0.045000000000000005
Oz,0,0,11,-1.0043567631281201e-06,-0.045000000000000005
Iz,0,0,11,-8.053682200178769e-07,-0.045000000000000005
O2,0,0,12,2.669542339214754e-07,-0.04000000000000001
PO4,0,0,12,5.474410175437315e-08,-0.04000000000000001
P4,0,0,12,5.38898986622274e-07,-0.04000000000000001
P6,0,0,12,3.6381259284254595e-07,-0.04000000000000001
P2,0,0,12,5.395511699379127e-07,-0.04000000000000001
P1,0,0,12,1.1909163044584111e-07,-0.04000000000000001
P3,0,0,12,6.357283572616491e-08,-0.04000000000000001
P5,0,0,12,-2.4857079305599346e-07,-0.04000000000000001
PO3,0,0,12,-7.116294647256007e-07,-0.04000000000000001
O1,0,0,12,-7.105247364953873e-07,-0.04000000000000001
Pz,0,0,12,-1.3213531008485285e-07,-0.04000000000000001
POz,0,0,12,-2.9625652384996195e-07,-0.04000000000000001
Oz,0,0,12,-7.141847069176631e-07,-0.04000000000000001
Iz,0,0,12,-7.274906012874914e-07,-0.04000000000000001
O2,0,0,13,1.4041257223927483e-07,-0.035
PO4,0,0,13,9.77482175411685e-08,-0.035
P4,0,0,13,6.314540714536112e-07,-0.035
P6,0,0,13,2.6148384159590567e-07,-0.035
P2,0,0,13,6.275827182399579e-07,-0.035
P1,0,0,13,1.8562641680405288e-07,-0.035
P3,0,0,13,-2.920342930010736e-08,-0.035
P5,0,0,13,-8.446885114230855e-07,-0.035
PO3,0,0,13,-7.319040700557569e-07,-0.035
O1,0,0,13,-9.088277190078417e-07,-0.035
Pz,0,0,13,-5.734795318814162e-08,-0.035
POz,0,0,13,-1.7841997351567698e-07,-0.035
Oz,0,0,13,-9.594281079691925e-07,-0.035
Iz,0,0,13,-1.0209573741293915e-06,-0.035
O2,0,0,14,3.421312317803166e-07,-0.03
PO4,0,0,14,3.8641007034309066e-07,-0.03
P4,0,0,14,7.174710044458465e-07,-0.03
P6,0,0,14,3.2051667366475703e-07,-0.03
P2,0,0,14,8.28288886975277e-07,-0.03
P1,0,0,14,6.30732957738241e-07,-0.03
P3,0,0,14,3.8360390065318695e-07,-0.03
P5,0,0,14,-3.708254983245218e-07,-0.03
PO3,0,0,14,-3.7801682924531083e-07,-0.03
O1,0,0,14,-7.788334358702659e-07,-0.03
Pz,0,0,14,3.069187043399537e-07,-0.03
POz,0,0,14,1.2232958315541435e-07,-0.03
Oz,0,0,14,-6.640774209301443e-07,-0.03
Iz,0,0,14,-1.0445159545272164e-06,-0.03
O2,0,0,15,5.422482653607462e-07,-0.02500000000000001
PO4,0,0,15,6.178379699878576e-07,-0.02500000000000001
P4,0,0,15,6.446797099664712e-07,-0.02500000000000001
P6,0,0,15,3.0244483455437095e-07,-0.02500000000000001
P2,0,0,15,9.644236406842027e-07,-0.02500000000000001
P1,0,0,15,9.620492018930844e-07,-0.02500000000000001
P3,0,0,15,8.252766628358472e-07,-0.02500000000000001
P5,0,0,15,2.2305797379644574e-08,-0.02500000000000001
PO3,0,0,15,-5.822873154943815e-08,-0.02500000000000001
O1,0,0,15,-3.311871877937048e-07,-0.02500000000000001
Pz,0,0,15,5.808921376335288e-07,-0.02500000000000001
POz,0,0,15,4.538646071148899e-07,-0.02500000000000001
Oz,0,0,15,-4.6374931344647155e-07,-0.02500000000000001
Iz,0,0,15,-1.1010774142378116e-06,-0.02500000000000001
O2,0,0,16,8.027491726083709e-07,-0.020000000000000004
PO4,0,0,16,8.741091981180286e-07,-0.020000000000000004
P4,0,0,16,7.723861865082226e-07,-0.020000000000000004
P6,0,0,16,2.8533106208883784e-07,-0.020000000000000004
P2,0,0,16,1.0416053306652446e-06,-0.020000000000000004
P1,0,0,16,1.3433472448695653e-06,-0.020000000000000004
P3,0,0,16,8.619468799103171e-07,-0.020000000000000004
P5,0,0,16,1.6456691971942795e-07,-0.020000000000000004
PO3,0,0,16,2.923557355883649e-07,-0.020000000000000004
O1,0,0,16,-5.720357165572082e-08,-0.020000000000000004
Pz,0,0,16,8.5544498917133e-07,-0.020000000000000004
POz,0,0,16,9.326577480370971e-07,-0.020000000000000004
Oz,0,0,16,-7.009599833554703e-08,-0.020000000000000004
Iz,0,0,16,-7.489772794869047e-07,-0.020000000000000004
O2,0,0,17,5.992464465972423e-07,-0.015
PO4,0,0,17,5.174074025727644e-07,-0.015
P4,0,0,17,6.434045595991411e-07,-0.015
P6,0,0,17,6.678113268031026e-08,-0.015
P2,0,0,17,8.234340227766167e-07,-0.015
P1,0,0,17,1.076063344458895e-06,-0.015
P3,0,0,17,5.796216671865853e-07,-0.015
P5,0,0,17,-3.5194919225906714e-08,-0.015
PO3,0,0,17,1.7460334020534658e-07,-0.015
O1,0,0,17,-3.112065145543551e-08,-0.015
Pz,0,0,17,6.816592829391962e-07,-0.015
POz,0,0,17,9.645122545016275e-07,-0.015
Oz,0,0,17,-1.1496223419553775e-07,-0.015
Iz,0,0,17,-8.151951228181967e-07,-0.015
O2,0,0,18,7.953081231590099e-07,-0.010000000000000009
PO4,0,0,18,7.350650856028937e-07,-0.010000000000000009
P4,0,0,18,6.756099579888984e-07,-0.010000000000000009
P6,0,0,18,2.457504095598754e-07,-0.010000000000000009
P2,0,0,18,9.778267611260749e-07,-0.010000000000000009
P1,0,0,18,1.1746762369177326e-06,-0.010000000000000009
P3,0,0,18,5.708134385414298e-07,-0.010000000000000009
P5,0,0,18,-4.96100203539422e-08,-0.010000000000000009
PO3,0,0,18,3.577684894072783e-07,-0.010000000000000009
O1,0,0,18,2.183747160412442e-07,-0.010000000000000009
Pz,0,0,18,7.557694025275253e-07,-0.010000000000000009
POz,0,0,18,9.521515207873962e-07,-0.010000000000000009
Oz,0,0,18,2.4011359254963476e-07,-0.010000000000000009
Iz,0,0,18,-4.492361734163566e-07,-0.010000000000000009
O2,0,0,19,2.3735462838048937e-07,-0.0050000000000000044
PO4,0,0,19,2.436124810434836e-07,-0.0050000000000000044
P4,0,0,19,2.359386441361844e-07,-0.0050000000000000044
P6,0,0,19,-1.8659366537375153e-07,-0.0050000000000000044
P2,0,0,19,5.446979160064623e-07,-0.0050000000000000044
P1,0,0,19,1.0092725769897204e-06,-0.0050000000000000044
P3,0,0,19,8.128198665012626e-07,-0.0050000000000000044
P5,0,0,19,2.627645877662289e-07,-0.0050000000000000044
PO3,0,0,19,1.9835713601735282e-07,-0.0050000000000000044
O1,0,0,19,-1.5804795571617174e-07,-0.0050000000000000044
Pz,0,0,19,4.950771739201585e-07,-0.0050000000000000044
POz,0,0,19,5.333150400879269e-07,-0.0050000000000000044
Oz,0,0,19,-8.226470844477665e-08,-0.0050000000000000044
Iz,0,0,19,-1.0649830805782952e-06,-0.0050000000000000044
O2,0,0,20,3.662435525242764e-07,0.0
PO4,0,0,20,1.9691303098033215e-07,0.0
P4,0,0,20,3.966257584140954e-07,0.0
P6,0,0,20,-2.5473384979260684e-07,0.0
P2,0,0,20,7.249853268817492e-07,0.0
P1,0,0,20,1.0428768704071388e-06,0.0
P3,0,0,20,7.093147041046439e-07,0.0
P5,0,0,20,-2.588420228839235e-08,0.0
PO3,0,0,20,1.796856038964574e-07,0.0
O1,0,0,20,-2.864193548753717e-09,0.0
Pz,0,0,20,6.322404734739799e-07,0.0
POz,0,0,20,6.046268422304991e-07,0.0
Oz,0,0,20,-7.765401579815469e-09,0.0
Iz,0,0,20,-7.778576538570187e-07,0.0
O2,0,0,21,-4.045726317165436e-08,0.0049999999999999906
PO4,0,0,21,-7.614718176227925e-08,0.0049999999999999906
P4,0,0,21,9.259969630048608e-08,0.0049999999999999906
P6,0,0,21,-4.0221657455675706e-07,0.0049999999999999906
P2,0,0,21,5.637309362736759e-07,0.0049999999999999906
P1,0,0,21,9.353987137821765e-07,0.0049999999999999906
P3,0,0,21,9.095081009915431e-07,0.0049999999999999906
P5,0,0,21,3.6160489714608056e-07,0.0049999999999999906
PO3,0,0,21,2.4987351058069437e-07,0.0049999999999999906
O1,0,0,21,-2.1898557993199557e-08,0.0049999999999999906
Pz,0,0,21,4.301889962297954e-07,0.0049999999999999906
POz,0,0,21,3.125476115400911e-07,0.0049999999999999906
Oz,0,0,21,-4.052180461396637e-07,0.0049999999999999906
Iz,0,0,21,-9.830702765324768e-07,0.0049999999999999906
O2,0,0,22,-1.662987741516968e-08,0.009999999999999995
PO4,0,0,22,-9.106020096305868e-08,0.009999999999999995
P4,0,0,22,2.591965525489663e-07,0.009999999999999995
P6,0,0,22,-4.24057041393487e-07,0.009999999999999995
P2,0,0,22,5.34366505378243e-07,0.009999999999999995
P1,0,0,22,7.661276116334146e-07,0.009999999999999995
P3,0,0,22,7.385890275408896e-07,0.009999999999999995
P5,0,0,22,2.4257459840178186e-07,0.009999999999999995
PO3,0,0,22,9.419229801110489e-08,0.009999999999999995
O1,0,0,22,-1.4401998189025293e-07,0.009999999999999995
Pz,0,0,22,3.2579624006247613e-07,0.009999999999999995
POz,0,0,22,1.396833383630294e-07,0.009999999999999995
Oz,0,0,22,-5.615084792702403e-07,0.009999999999999995
Iz,0,0,22,-8.698888522676522e-07,0.009999999999999995
O2,0,0,23,-3.706084195013341e-07,0.015
PO4,0,0,23,-5.144004384913453e-07,0.015
P4,0,0,23,2.7048772601815757e-07,0.015
P6,0,0,23,-6.353079858493712e-07,0.015
P2,0,0,23,4.2752766212583856e-07,0.015
P1,0,0,23,4.011985227408803e-07,0.015
P3,0,0,23,4.3106036956369927e-07,0.015
P5,0,0,23,-1.0468139263841387e-07,0.015
PO3,0,0,23,-3.81432531553411e-07,0.015
O1,0,0,23,-7.013240625742968e-07,0.015
Pz,0,0,23,-6.157149023913534e-09,0.015
POz,0,0,23,-1.2586066403597936e-07,0.015
Oz,0,0,23,-9.742413858390169e-07,0.015
Iz,0,0,23,-1.1313132484644208e-06,0.015
O2,0,0,24,-3.174408443686189e-07,0.01999999999999999
PO4,0,0,24,-4.6403258185298065e-07,0.01999999999999999
P4,0,0,24,3.904202823558737e-07,0.01999999999999999
P6,0,0,24,-1.3624188231172973e-07,0.01999999999999999
P2,0,0,24,6.75781907017734e-07,0.01999999999999999
P1,0,0,24,2.291509992781992e-07,0.01999999999999999
P3,0,0,24,3.6740075881601615e-07,0.01999999999999999
P5,0,0,24,-4.8235210560728534e-08,0.01999999999999999
PO3,0,0,24,-3.676254152035836e-07,0.01999999999999999
O1,0,0,24,-4.833705232131816e-07,0.01999999999999999
Pz,0,0,24,7.377388023287485e-08,0.01999999999999999
POz,0,0,24,-9.87573174416707e-08,0.01999999999999999
Oz,0,0,24,-8.71376630056135e-07,0.01999999999999999
Iz,0,0,24,-8.486817512683838e-07,0.01999999999999999
O2,0,0,25,-1.54397166120151e-07,0.024999999999999994
PO4,0,0,25,-4.203510488584484e-07,0.024999999999999994
P4,0,0,25,4.625553162941361e-07,0.024999999999999994
P6,0,0,25,-2.2814567591507563e-07,0.024999999999999994
P2,0,0,25,4.5186935319085623e-07,0.024999999999999994
P1,0,0,25,1.0169860529315808e-07,0.024999999999999994
P3,0,0,25,4.97808002472136e-07,0.024999999999999994
P5,0,0,25,2.3173703210516374e-07,0.024999999999999994
PO3,0,0,25,-4.159612161127442e-07,0.024999999999999994
O1,0,0,25,-4.857334772637659e-07,0.024999999999999994
Pz,0,0,25,-2.3083964715436523e-07,0.024999999999999994
POz,0,0,25,-4.360044063682704e-07,0.024999999999999994
Oz,0,0,25,-8.489135257578413e-07,0.024999999999999994
Iz,0,0,25,-6.719062020359464e-07,0.024999999999999994
O2,0,0,26,-7.922940101469987e-08,0.03
PO4,0,0,26,-2.674537345405164e-07,0.03
P4,0,0,26,5.73119408201379e-07,0.03
P6,0,0,26,-1.73121395824756e-09,0.03
P2,0,0,26,3.572420858451737e-07,0.03
P1,0,0,26,5.682811975312677e-08,0.03
P3,0,0,26,4.2668270725972273e-07,0.03
P5,0,0,26,2.8475777349261256e-08,0.03
PO3,0,0,26,-6.042232125864777e-07,0.03
O1,0,0,26,-8.280806652862608e-07,0.03
Pz,0,0,26,-1.5214087158879877e-07,0.03
POz,0,0,26,-6.036392975675132e-07,0.03
Oz,0,0,26,-8.718501832933802e-07,0.03
Iz,0,0,26,-8.307080446551432e-07,0.03
O2,0,0,27,1.6285473821734038e-07,0.035
PO4,0,0,27,-5.971978590014908e-09,0.035
P4,0,0,27,7.585960037865869e-07,0.035
P6,0,0,27,1.1716343113924301e-07,0.035
P2,0,0,27,3.2217439389540094e-07,0.035
P1,0,0,27,3.9872433950077924e-08,0.035
P3,0,0,27,4.067995738992813e-07,0.035
P5,0,0,27,-8.80673348091228e-08,0.035
PO3,0,0,27,-3.985815775234244e-07,0.035
O1,0,0,27,-5.686711558046202e-07,0.035
Pz,0,0,27,-2.621648431588545e-07,0.035
POz,0,0,27,-6.083176716591747e-07,0.035
Oz,0,0,27,-5.519387942857312e-07,0.035
Iz,0,0,27,-5.580008680126302e-07,0.035
O2,0,0,28,7.863498468196327e-07,0.04000000000000001
PO4,0,0,28,3.175038518516565e-07,0.04000000000000001
P4,0,0,28,8.608818888947282e-07,0.04000000000000001
P6,0,0,28,6.267401210224492e-07,0.04000000000000001
P2,0,0,28,4.2186294890954217e-07,0.04000000000000001
P1,0,0,28,1.3115953587213535e-07,0.04000000000000001
P3,0,0,28,2.589302568494891e-07,0.04000000000000001
P5,0,0,28,-4.1617214543423295e-08,0.04000000000000001
PO3,0,0,28,-3.600040129787427e-07,0.04000000000000001
O1,0,0,28,-1.5716084901706846e-08,0.04000000000000001
Pz,0,0,28,-2.8061311878269323e-07,0.04000000000000001
POz,0,0,28,-3.306917814687694e-07,0.04000000000000001
Oz,0,0,28,-8.006944409248834e-08,0.04000000000000001
Iz,0,0,28,-7.508509431367766e-08,0.04000000000000001
O2,0,0,29,8.806246494094725e-07,0.044999999999999984
PO4,0,0,29,2.7327406514808983e-07,0.044999999999999984
P4,0,0,29,8.242377101170723e-07,0.044999999999999984
P6,0,0,29,5.844692388508528e-07,0.044999999999999984
P2,0,0,29,2.544980897110718e-07,0.044999999999999984
P1,0,0,29,-7.398438696770361e-10,0.044999999999999984
P3,0,0,29,7.40651123101405e-08,0.044999999999999984
P5,0,0,29,-4.173223714891659e-08,0.044999999999999984
PO3,0,0,29,-4.5218047674452724e-07,0.044999999999999984
O1,0,0,29,-1.571585996397029e-07,0.044999999999999984
Pz,0,0,29,-4.0774137243736443e-07,0.044999999999999984
POz,0,0,29,-4.418892334960532e-07,0.044999999999999984
Oz,0,0,29,-2.127804572945986e-07,0.044999999999999984
Iz,0,0,29,-2.1595679033414485e-07,0.044999999999999984
O2,0,0,30,1.4365236077399221e-06,0.04999999999999999
PO4,0,0,30,7.435508495462236e-07,0.04999999999999999
P4,0,0,30,8.531460002774851e-07,0.04999999999999999
P6,0,0,30,7.456848145434983e-07,0.04999999999999999
P2,0,0,30,5.327706206718471e-07,0.04999999999999999
P1,0,0,30,2.477683893646725e-07,0.04999999999999999
P3,0,0,30,1.4480557855516645e-07,0.04999999999999999
P5,0,0,30,-2.7687896466035482e-08,0.04999999999999999
PO3,0,0,30,-2.888110169923616e-07,0.04999999999999999
O1,0,0,30,2.4178632586214063e-07,0.04999999999999999
Pz,0,0,30,-1.5430786984884664e-07,0.04999999999999999
POz,0,0,30,8.066691864967645e-08,0.04999999999999999
Oz,0,0,30,4.4809191153265474e-07,0.04999999999999999
Iz,0,0,30,3.997668414277874e-07,0.04999999999999999
O2,0,0,31,9.2238842000863e-07,0.05499999999999999
PO4,0,0,31,3.959398367074198e-07,0.05499999999999999
P4,0,0,31,5.3886572106754e-07,0.05499999999999999
P6,0,0,31,3.729196406594624e-07,0.05499999999999999
P2,0,0,31,3.128168753784304e-07,0.05499999999999999
P1,0,0,31,3.7776103326565574e-07,0.05499999999999999
P3,0,0,31,3.7715461400195354e-07,0.05499999999999999
P5,0,0,31,4.163364995674782e-07,0.05499999999999999
PO3,0,0,31,-3.091843207080872e-07,0.05499999999999999
O1,0,0,31,-6.883466016458498e-08,0.05499999999999999
Pz,0,0,31,-1.450969864361683e-07,0.05499999999999999
POz,0,0,31,-5.901807644019544e-09,0.05499999999999999
Oz,0,0,31,-2.5808699880140957e-08,0.05499999999999999
Iz,0,0,31,-1.813389859960852e-07,0.05499999999999999
O2,0,0,32,9.950101225258744e-07,0.06
PO4,0,0,32,6.189970587096164e-07,0.06
P4,0,0,32,4.735933161182806e-07,0.06
P6,0,0,32,4.251236928229153e-07,0.06
P2,0,0,32,3.8585096376634155e-07,0.06
P1,0,0,32,5.81328691167361e-07,0.06
P3,0,0,32,4.2490089497069564e-07,0.06
P5,0,0,32,1.7288689176551342e-07,0.06
PO3,0,0,32,-1.295582831317372e-07,0.06
O1,0,0,32,1.6631493571994266e-07,0.06
Pz,0,0,32,-2.8720106608474174e-08,0.06
POz,0,0,32,2.1140557380308763e-07,0.06
Oz,0,0,32,1.7023370456813943e-07,0.06
Iz,0,0,32,1.7074608405120709e-07,0.06
O2,0,0,33,1.3100163988525348e-06,0.065
PO4,0,0,33,8.961453635818737e-07,0.065
P4,0,0,33,9.467441298720336e-07,0.065
P6,0,0,33,5.631494284070194e-07,0.065
P2,0,0,33,6.648052750571304e-07,0.065
P1,0,0,33,9.735620426074334e-07,0.065
P3,0,0,33,8.451786604493144e-07,0.065
P5,0,0,33,6.008951098118407e-07,0.065
PO3,0,0,33,4.122627570574284e-07,0.065
O1,0,0,33,4.022305309786325e-07,0.065
Pz,0,0,33,3.670655510506095e-07,0.065
POz,0,0,33,7.680412805157126e-07,0.065
Oz,0,0,33,4.7372522785651394e-07,0.065
Iz,0,0,33,1.5156905051347272e-07,0.065
O2,0,0,34,1.3081265038311228e-06,0.07
PO4,0,0,34,7.757093199684803e-07,0.07
P4,0,0,34,5.901883296974044e-07,0.07
P6,0,0,34,8.981811876003582e-08,0.07
P2,0,0,34,4.875201454897764e-07,0.07
P1,0,0,34,1.0935810629425587e-06,0.07
P3,0,0,34,9.515960048124809e-07,0.07
P5,0,0,34,7.315998683294065e-07,0.07
PO3,0,0,34,6.688770280548477e-07,0.07
O1,0,0,34,1.0035503718094178e-06,0.07
Pz,0,0,34,3.072389664927667e-07,0.07
POz,0,0,34,9.14759441100371e-07,0.07
Oz,0,0,34,5.412624703636149e-07,0.07
Iz,0,0,34,1.8215224548543542e-07,0.07
O2,0,0,35,1.1857060461441714e-06,0.07500000000000001
PO4,0,0,35,8.033884908498644e-07,0.07500000000000001
P4,0,0,35,8.238402876639187e-07,0.07500000000000001
P6,0,0,35,2.336911544864628e-07,0.07500000000000001
P2,0,0,35,5.862249423549123e-07,0.07500000000000001
P1,0,0,35,1.1286128123658735e-06,0.07500000000000001
P3,0,0,35,9.489053330336005e-07,0.07500000000000001
P5,0,0,35,6.761674424568533e-07,0.07500000000000001
PO3,0,0,35,5.165866994243864e-07,0.07500000000000001
O1,0,0,35,6.997897470151098e-07,0.07500000000000001
Pz,0,0,35,5.213639998742616e-07,0.07500000000000001
POz,0,0,35,9.001565932298461e-07,0.07500000000000001
Oz,0,0,35,2.515535282897419e-07,0.07500000000000001
Iz,0,0,35,5.689058876371785e-08,0.07500000000000001
O2,0,0,36,1.4720815483573423e-06,0.07999999999999999
PO4,0,0,36,9.351501573546821e-07,0.07999999999999999
P4,0,0,36,9.98583011799427e-07,0.07999999999999999
P6,0,0,36,3.41614448237318e-07,0.07999999999999999
P2,0,0,36,1.0760035412802501e-06,0.07999999999999999
P1,0,0,36,1.4030241317170953e-06,0.07999999999999999
P3,0,0,36,1.1132042001886158e-06,0.07999999999999999
P5,0,0,36,7.515938233414261e-07,0.07999999999999999
PO3,0,0,36,7.962072867195376e-07,0.07999999999999999
O1,0,0,36,6.190382274325446e-07,0.07999999999999999
Pz,0,0,36,9.183004658004052e-07,0.07999999999999999
POz,0,0,36,1.2952923093497487e-06,0.07999999999999999
Oz,0,0,36,5.579287505499681e-07,0.07999999999999999
Iz,0,0,36,1.7548191570648746e-07,0.07999999999999999
O2,0,0,37,1.3327396795324909e-06,0.08499999999999999
PO4,0,0,37,1.1633629221107124e-06,0.08499999999999999
P4,0,0,37,1.0800716204094504e-06,0.08499999999999999
P6,0,0,37,4.926443029773716e-07,0.08499999999999999
P2,0,0,37,1.181892491647185e-06,0.08499999999999999
P1,0,0,37,1.5150031132202303e-06,0.08499999999999999
P3,0,0,37,1.2243873358484873e-06,0.08499999999999999
P5,0,0,37,6.3205509976429e-07,0.08499999999999999
PO3,0,0,37,9.038853909201071e-07,0.08499999999999999
O1,0,0,37,6.781462155875606e-07,0.08499999999999999
Pz,0,0,37,1.018486075233099e-06,0.08499999999999999
POz,0,0,37,1.3294797146830618e-06,0.08499999999999999
Oz,0,0,37,5.227585701441446e-07,0.08499999999999999
Iz,0,0,37,-8.750963056130482e-08,0.08499999999999999
O2,0,0,38,7.272693659204513e-07,0.09
PO4,0,0,38,6.646922588845492e-07,0.09
P4,0,0,38,8.614318389037896e-07,0.09
P6,0,0,38,4.542666267473799e-07,0.09
P2,0,0,38,8.405391555481911e-07,0.09
P1,0,0,38,1.1945420440103721e-06,0.09
P3,0,0,38,1.1042366600054949e-06,0.09
P5,0,0,38,5.653891725580667e-07,0.09
PO3,0,0,38,2.637837368275025e-07,0.09
O1,0,0,38,7.893504808715154e-08,0.09
Pz,0,0,38,7.618088760150713e-07,0.09
POz,0,0,38,7.934452805398203e-07,0.09
Oz,0,0,38,-1.550002965496673e-07,0.09
Iz,0,0,38,-2.427344742664911e-07,0.09
O2,0,0,39,1.1946979303808272e-06,0.095
PO4,0,0,39,7.87314945042396e-07,0.095
P4,0,0,39,1.1235517779497416e-06,0.095
P6,0,0,39,7.468701356631259e-07,0.095
P2,0,0,39,1.044637199574999e-06,0.095
P1,0,0,39,8.933846774917564e-07,0.095
P3,0,0,39,7.714217054236947e-07,0.095
P5,0,0,39,3.9856925845864395e-07,0.095
PO3,0,0,39,-2.118125009233953e-07,0.095
O1,0,0,39,-3.786177748522134e-07,0.095
Pz,0,0,39,4.80093402275535e-07,0.095
POz,0,0,39,7.232585372422719e-07,0.095
Oz,0,0,39,-5.8349643008488215e-08,0.095
Iz,0,0,39,-5.990903786401827e-08,0.095
O2,0,0,40,1.3849456814536722e-06,0.1
PO4,0,0,40,6.46070552510337e-07,0.1
P4,0,0,40,1.0781587983961604e-06,0.1
P6,0,0,40,6.307157782055e-07,0.1
P2,0,0,40,8.656293196809718e-07,0.1
P1,0,0,40,2.440872537086756e-07,0.1
P3,0,0,40,1.1362300234862714e-08,0.1
P5,0,0,40,-6.7908027530892e-07,0.1
PO3,0,0,40,-1.0995964537797196e-06,0.1
O1,0,0,40,-8.660123708805176e-07,0.1
Pz,0,0,40,2.054198452700497e-07,0.1
POz,0,0,40,3.3327837297053596e-07,0.1
Oz,0,0,40,-1.2943487876119434e-07,0.1
Iz,0,0,40,-1.1670111398889817e-07,0.1
O2,0,0,41,1.937286506152677e-06,0.10500000000000001
PO4,0,0,41,9.748688807929382e-07,0.10500000000000001
P4,0,0,41,1.5382840406690072e-06,0.10500000000000001
P6,0,0,41,1.4416244166204806e-06,0.10500000000000001
P2,0,0,41,1.1684679497487877e-06,0.10500000000000001
P1,0,0,41,8.722514621003612e-08,0.10500000000000001
P3,0,0,41,-3.081979217277937e-07,0.10500000000000001
P5,0,0,41,-9.347526844480691e-07,0.10500000000000001
PO3,0,0,41,-1.4717362705190392e-06,0.10500000000000001
O1,0,0,41,-8.596062806904549e-07,0.10500000000000001
Pz,0,0,41,2.101531165951413e-07,0.10500000000000001
POz,0,0,41,1.3738655168598924e-07,0.10500000000000001
Oz,0,0,41,2.2312059633226696e-07,0.10500000000000001
Iz,0,0,41,6.637851701510658e-07,0.10500000000000001
O2,0,0,42,1.7989822842123066e-06,0.10999999999999999
PO4,0,0,42,8.101748725127361e-07,0.10999999999999999
P4,0,0,42,1.6759636422375673e-06,0.10999999999999999
P6,0,0,42,1.579891617670861e-06,0.10999999999999999
P2,0,0,42,9.151839074925901e-07,0.10999999999999999
P1,0,0,42,-5.16329289359956e-07,0.10999999999999999
P3,0,0,42,-1.039287742333964e-06,0.10999999999999999
P5,0,0,42,-1.2635371394090472e-06,0.10999999999999999
PO3,0,0,42,-1.9997515710243447e-06,0.10999999999999999
O1,0,0,42,-1.3595932462596176e-06,0.10999999999999999
Pz,0,0,42,-2.3768662764800647e-08,0.10999999999999999
POz,0,0,42,-4.3755893603965714e-07,0.10999999999999999
Oz,0,0,42,-2.2187325322247822e-07,0.10999999999999999
Iz,0,0,42,4.531688839526022e-07,0.10999999999999999
O2,0,0,43,1.6612713295008925e-06,0.11499999999999999
PO4,0,0,43,5.517307850194551e-07,0.11499999999999999
P4,0,0,43,1.9276674534558072e-06,0.11499999999999999
P6,0,0,43,1.9066369113686284e-06,0.11499999999999999
P2,0,0,43,9.539312174735934e-07,0.11499999999999999
P1,0,0,43,-6.160118278095162e-07,0.11499999999999999
P3,0,0,43,-1.1027401759099717e-06,0.11499999999999999
P5,0,0,43,-1.505926415413887e-06,0.11499999999999999
PO3,0,0,43,-2.2227661935222507e-06,0.11499999999999999
O1,0,0,43,-1.6585750549174837e-06,0.11499999999999999
Pz,0,0,43,-1.436825286034825e-07,0.11499999999999999
POz,0,0,43,-8.226175317811547e-07,0.11499999999999999
Oz,0,0,43,-5.302557008082098e-07,0.11499999999999999
Iz,0,0,43,5.719306850016679e-07,0.11499999999999999
O2,0,0,44,1.0880434838926343e-06,0.12
PO4,0,0,44,3.141099258307926e-07,0.12
P4,0,0,44,2.1610276525035734e-06,0.12
P6,0,0,44,2.2240493730983406e-06,0.12
P2,0,0,44,1.024678898374544e-06,0.12
P1,0,0,44,-8.063136923841106e-07,0.12
P3,0,0,44,-1.2019232459645808e-06,0.12
P5,0,0,44,-1.8492927118800473e-06,0.12
PO3,0,0,44,-2.4428498568875717e-06,0.12
O1,0,0,44,-1.7931517688945233e-06,0.12
Pz,0,0,44,-1.9699288978779916e-07,0.12
POz,0,0,44,-1.37309263271452e-06,0.12
Oz,0,0,44,-9.410272941171097e-07,0.12
Iz,0,0,44,5.063430628709976e-07,0.12
O2,0,0,45,1.2453127803972641e-06,0.125
PO4,0,0,45,2.0565718442716232e-07,0.125
P4,0,0,45,2.204970983047754e-06,0.125
P6,0,0,45,2.5460664364019623e-06,0.125
P2,0,0,45,1.0598128315499548e-06,0.125
P1,0,0,45,-9.808002965733308e-07,0.125
P3,0,0,45,-1.4453138624349781e-06,0.125
P5,0,0,45,-1.7407717439143246e-06,0.125
PO3,0,0,45,-2.3873871270940547e-06,0.125
O1,0,0,45,-1.8920938705044967e-06,0.125
Pz,0,0,45,-4.368613142456142e-07,0.125
POz,0,0,45,-1.5724377128724793e-06,0.125
Oz,0,0,45,-1.088926863096445e-06,0.125
Iz,0,0,45,4.990791465953698e-07,0.125
O2,0,0,46,1.4771146396712142e-06,0.13
PO4,0,0,46,4.817430417345342e-07,0.13
P4,0,0,46,1.959942643100942e-06,0.13
P6,0,0,46,2.6272421880508548e-06,0.13
P2,0,0,46,9.411979633773637e-07,0.13
P1,0,0,46,-1.0124959647847881e-06,0.13
P3,0,0,46,-1.2618059212965296e-06,0.13
P5,0,0,46,-1.657881902689771e-06,0.13
PO3,0,0,46,-2.2687032011299955e-06,0.13
O1,0,0,46,-1.6615518860003308e-06,0.13
Pz,0,0,46,-5.65120614194113e-07,0.13
POz,0,0,46,-1.3772188936084756e-06,0.13
Oz,0,0,46,-9.342752655234206e-07,0.13
Iz,0,0,46,3.732644591990726e-07,0.13
O2,0,0,47,1.12199217714884e-06,0.135
PO4,0,0,47,1.0895479570982362e-07,0.135
P4,0,0,47,1.6849337156263156e-06,0.135
P6,0,0,47,2.2669887421567313e-06,0.135
P2,0,0,47,6.911928578099393e-07,0.135
P1,0,0,47,-7.690942289538894e-07,0.135
P3,0,0,47,-1.071854314371069e-06,0.135
P5,0,0,47,-1.4562201390130594e-06,0.135
PO3,0,0,47,-1.982501333779253e-06,0.135
O1,0,0,47,-1.5333596333144174e-06,0.135
Pz,0,0,47,-4.3527078707709106e-07,0.135
POz,0,0,47,-1.2061396258604991e-06,0.135
Oz,0,0,47,-7.981390664412778e-07,0.135
Iz,0,0,47,4.4466679003022587e-07,0.135
O2,0,0,48,5.697433870381233e-07,0.13999999999999999
PO4,0,0,48,-2.9652368305565497e-07,0.13999999999999999
P4,0,0,48,1.273805113295548e-06,0.13999999999999999
P6,0,0,48,1.6319367068669695e-06,0.13999999999999999
P2,0,0,48,5.625543510501939e-07,0.13999999999999999
P1,0,0,48,-3.6792043176008216e-07,0.13999999999999999
P3,0,0,48,-3.348174663064757e-07,0.13999999999999999
P5,0,0,48,-4.268247056983945e-07,0.13999999999999999
PO3,0,0,48,-1.438545394924262e-06,0.13999999999999999
O1,0,0,48,-9.65051523389751e-07,0.13999999999999999
Pz,0,0,48,-2.431891056063956e-07,0.13999999999999999
POz,0,0,48,-9.108911672711477e-07,0.13999999999999999
Oz,0,0,48,-7.972477265976536e-07,0.13999999999999999
Iz,0,0,48,4.3854056831907123e-07,0.13999999999999999
O2,0,0,49,4.922638235662561e-07,0.145
PO4,0,0,49,-3.1912914834634357e-07,0.145
P4,0,0,49,9.587350729933854e-07,0.145
P6,0,0,49,9.507531358705425e-07,0.145
P2,0,0,49,4.7477381488419766e-07,0.145
P1,0,0,49,2.145353118113095e-07,0.145
P3,0,0,49,1.2565753406996477e-07,0.145
P5,0,0,49,-1.6933506079392227e-07,0.145
PO3,0,0,49,-8.953676928676989e-07,0.145
O1,0,0,49,-4.0404323246896925e-07,0.145
Pz,0,0,49,5.455319826767383e-08,0.145
POz,0,0,49,-4.2824122131493115e-07,0.145
Oz,0,0,49,-3.7883591311454296e-07,0.145
Iz,0,0,49,7.680317976720291e-07,0.145
O2,0,0,50,5.591957455213495e-08,0.15
PO4,0,0,50,-6.57697070561775e-07,0.15
P4,0,0,50,1.629396562173547e-07,0.15
P6,0,0,50,2.2124956276365192e-07,0.15
P2,0,0,50,1.6656814651581685e-07,0.15
P1,0,0,50,8.156541444451826e-07,0.15
P3,0,0,50,8.735409901872523e-07,0.15
P5,0,0,50,7.36999161506522e-07,0.15
PO3,0,0,50,-1.10384751151848e-07,0.15
O1,0,0,50,5.546139852776492e-07,0.15
Pz,0,0,50,3.886396669782631e-07,0.15
POz,0,0,50,7.012465776501473e-08,0.15
Oz,0,0,50,-2.5580768932742846e-08,0.15
Iz,0,0,50,1.1118146931026292e-06,0.15
O2,0,0,51,-5.760680912681414e-07,0.155
PO4,0,0,51,-1.2042227529243656e-06,0.155
P4,0,0,51,-3.600644231833869e-07,0.155
P6,0,0,51,-9.129204792293324e-07,0.155
P2,0,0,51,-1.9281655479831725e-07,0.155
P1,0,0,51,1.1065608426551077e-06,0.155
P3,0,0,51,1.3166872525692182e-06,0.155
P5,0,0,51,1.3324804782970818e-06,0.155
PO3,0,0,51,5.60578424606381e-07,0.155
O1,0,0,51,1.0162983596641412e-06,0.155
Pz,0,0,51,5.243071302280613e-07,0.155
POz,0,0,51,2.793692343739938e-07,0.155
Oz,0,0,51,-1.9655579689915044e-07,0.155
Iz,0,0,51,8.873317751373586e-07,0.155
O2,0,0,52,-1.5514457889623043e-07,0.16
PO4,0,0,52,-1.1317888939964163e-06,0.16
P4,0,0,52,-7.817776984773211e-07,0.16
P6,0,0,52,-1.213719049812988e-06,0.16
P2,0,0,52,-4.663112623224015e-08,0.16
P1,0,0,52,1.7459223393648373e-06,0.16
P3,0,0,52,2.0085827563788442e-06,0.16
P5,0,0,52,1.8721049040391048e-06,0.16
PO3,0,0,52,1.360790052796354e-06,0.16
O1,0,0,52,1.8489713503116141e-06,0.16
Pz,0,0,52,6.644229836296698e-07,0.16
POz,0,0,52,9.893909465499664e-07,0.16
Oz,0,0,52,4.809838057865054e-07,0.16
Iz,0,0,52,1.5747404603482237e-06,0.16
O2,0,0,53,1.295319655102403e-07,0.165
PO4,0,0,53,-7.439136279941782e-07,0.165
P4,0,0,53,-9.169464483290695e-07,0.165
P6,0,0,53,-1.5350449704516297e-06,0.165
P2,0,0,53,1.3233854923612492e-07,0.165
P1,0,0,53,2.2037447117005037e-06,0.165
P3,0,0,53,2.3232193906217733e-06,0.165
P5,0,0,53,2.0130733230496892e-06,0.165
PO3,0,0,53,2.011238334992344e-06,0.165
O1,0,0,53,2.4049935729790602e-06,0.165
Pz,0,0,53,7.808240938422909e-07,0.165
POz,0,0,53,1.6062389080813699e-06,0.165
Oz,0,0,53,9.532954889748888e-07,0.165
Iz,0,0,53,1.5676971169980428e-06,0.165
O2,0,0,54,-5.6006836644611793e-08,0.17
PO4,0,0,54,-6.063758915535595e-07,0.17
P4,0,0,54,-8.342257501922327e-07,0.17
P6,0,0,54,-1.8451973788181804e-06,0.17
P2,0,0,54,2.2137384713216134e-07,0.17
P1,0,0,54,2.6036017968168367e-06,0.17
P3,0,0,54,2.6267413555509055e-06,0.17
P5,0,0,54,2.3849482043305946e-06,0.17
PO3,0,0,54,2.3925218900308248e-06,0.17
O1,0,0,54,2.612800693161062e-06,0.17
Pz,0,0,54,1.192477634022554e-06,0.17
POz,0,0,54,1.9875775386463254e-06,0.17
Oz,0,0,54,1.1094427052435086e-06,0.17
Iz,0,0,54,1.3657135567796641e-06,0.17
O2,0,0,55,1.020141344309833e-07,0.17500000000000002
PO4,0,0,55,-2.07121130916632e-07,0.17500000000000002
P4,0,0,55,-8.670436628984138e-07,0.17500000000000002
P6,0,0,55,-1.869733902574002e-06,0.17500000000000002
P2,0,0,55,3.6598248519235775e-07,0.17500000000000002
P1,0,0,55,3.0193618590825553e-06,0.17500000000000002
P3,0,0,55,2.978683606505262e-06,0.17500000000000002
P5,0,0,55,2.7050789514902704e-06,0.17500000000000002
PO3,0,0,55,2.959614400516002e-06,0.17500000000000002
O1,0,0,55,3.1513621775311285e-06,0.17500000000000002
Pz,0,0,55,1.579459334393162e-06,0.17500000000000002
POz,0,0,55,2.372065983842702e-06,0.17500000000000002
Oz,0,0,55,1.1331438876184722e-06,0.17500000000000002
Iz,0,0,55,1.2466619745211218e-06,0.17500000000000002
O2,0,0,56,-1.5886447354824584e-07,0.18000000000000002
PO4,0,0,56,-2.101059769895773e-07,0.18000000000000002
P4,0,0,56,-8.409969163724045e-07,0.18000000000000002
P6,0,0,56,-1.9648667203329606e-06,0.18000000000000002
P2,0,0,56,7.031251884367492e-07,0.18000000000000002
P1,0,0,56,3.3180073260765505e-06,0.18000000000000002
P3,0,0,56,3.1937596409088947e-06,0.18000000000000002
P5,0,0,56,3.0530454274347e-06,0.18000000000000002
PO3,0,0,56,3.131530362586991e-06,0.18000000000000002
O1,0,0,56,3.014946351576279e-06,0.18000000000000002
Pz,0,0,56,2.024246480742796e-06,0.18000000000000002
POz,0,0,56,2.3880286073307434e-06,0.18000000000000002
Oz,0,0,56,8.804832208033343e-07,0.18000000000000002
Iz,0,0,56,5.843577036856382e-07,0.18000000000000002
O2,0,0,57,1.9583420447355114e-07,0.18500000000000003
PO4,0,0,57,-4.28677814522284e-08,0.18500000000000003
P4,0,0,57,-7.047936627196972e-07,0.18500000000000003
P6,0,0,57,-1.9800404998463377e-06,0.18500000000000003
P2,0,0,57,9.099360328591321e-07,0.18500000000000003
P1,0,0,57,3.4608888414738195e-06,0.18500000000000003
P3,0,0,57,3.223740907972881e-06,0.18500000000000003
P5,0,0,57,2.5620173677622007e-06,0.18500000000000003
PO3,0,0,57,3.2073737337713115e-06,0.18500000000000003
O1,0,0,57,3.329081617035145e-06,0.18500000000000003
Pz,0,0,57,2.3904558034648315e-06,0.18500000000000003
POz,0,0,57,2.714200448911321e-06,0.18500000000000003
Oz,0,0,57,1.2903123068784404e-06,0.18500000000000003
Iz,0,0,57,9.823158103396501e-07,0.18500000000000003
O2,0,0,58,3.3044556032671235e-07,0.18999999999999997
PO4,0,0,58,4.373956020671975e-07,0.18999999999999997
P4,0,0,58,-6.208839555335986e-07,0.18999999999999997
P6,0,0,58,-1.858327678224576e-06,0.18999999999999997
P2,0,0,58,1.081475644180968e-06,0.18999999999999997
P1,0,0,58,3.6284910172182266e-06,0.18999999999999997
P3,0,0,58,3.3354617919279594e-06,0.18999999999999997
P5,0,0,58,2.9660641595314123e-06,0.18999999999999997
PO3,0,0,58,3.4206056968536803e-06,0.18999999999999997
O1,0,0,58,3.5046392440769478e-06,0.18999999999999997
Pz,0,0,58,2.5428328024072787e-06,0.18999999999999997
POz,0,0,58,2.9014345991824595e-06,0.18999999999999997
Oz,0,0,58,1.2645245736574829e-06,0.18999999999999997
Iz,0,0,58,9.53711638963392e-07,0.18999999999999997
O2,0,0,59,-1.1966554202855106e-07,0.19499999999999998
PO4,0,0,59,8.802171155737387e-08,0.19499999999999998
P4,0,0,59,-7.925862301129188e-07,0.19499999999999998
P6,0,0,59,-2.0112229446526348e-06,0.19499999999999998
P2,0,0,59,8.982136726827872e-07,0.19499999999999998
P1,0,0,59,3.427268585666896e-06,0.19499999999999998
P3,0,0,59,3.150794794415733e-06,0.19499999999999998
P5,0,0,59,3.0359808887551565e-06,0.19499999999999998
PO3,0,0,59,2.906578238112066e-06,0.19499999999999998
O1,0,0,59,2.8403841986951527e-06,0.19499999999999998
Pz,0,0,59,2.3341098621470528e-06,0.19499999999999998
POz,0,0,59,2.49888101931462e-06,0.19499999999999998
Oz,0,0,59,7.691176909739365e-07,0.19499999999999998
Iz,0,0,59,-1.0844932676478863e-08,0.19499999999999998
O2,0,0,60,1.728541005531975e-07,0.19999999999999998
PO4,0,0,60,3.1434587225803637e-07,0.19999999999999998
P4,0,0,60,-8.451936163787258e-07,0.19999999999999998
P6,0,0,60,-1.8790061097808862e-06,0.19999999999999998
P2,0,0,60,9.189629179716664e-07,0.19999999999999998
P1,0,0,60,3.208182531942849e-06,0.19999999999999998
P3,0,0,60,2.8708978491757327e-06,0.19999999999999998
P5,0,0,60,2.623354975229792e-06,0.19999999999999998
PO3,0,0,60,2.8768898245050026e-06,0.19999999999999998
O1,0,0,60,2.721834022024077e-06,0.19999999999999998
Pz,0,0,60,2.2118469343397067e-06,0.19999999999999998
POz,0,0,60,2.404611974652722e-06,0.19999999999999998
Oz,0,0,60,7.292709438985685e-07,0.19999999999999998
Iz,0,0,60,-9.652219519880879e-08,0.19999999999999998
O2,0,0,61,-2.8315642015539623e-07,0.205
PO4,0,0,61,1.3578734875359218e-07,0.205
P4,0,0,61,-7.351099630632849e-07,0.205
P6,0,0,61,-1.9572559957582305e-06,0.205
P2,0,0,61,7.818604864302824e-07,0.205
P1,0,0,61,2.812321252157409e-06,0.205
P3,0,0,61,2.7679790933417857e-06,0.205
P5,0,0,61,2.600546238995416e-06,0.205
PO3,0,0,61,2.478783281129703e-06,0.205
O1,0,0,61,2.1212283216086633e-06,0.205
Pz,0,0,61,1.8018778483228955e-06,0.205
POz,0,0,61,1.997972382365473e-06,0.205
Oz,0,0,61,2.281024791585005e-07,0.205
Iz,0,0,61,-6.079126995207687e-07,0.205
O2,0,0,62,-5.197716229040696e-07,0.21
PO4,0,0,62,-6.640426968614481e-08,0.21
P4,0,0,62,-5.981578340053956e-07,0.21
P6,0,0,62,-1.8715505259108905e-06,0.21
P2,0,0,62,6.33047284391705e-07,0.21
P1,0,0,62,2.3954037366754105e-06,0.21
P3,0,0,62,2.3629977315461224e-06,0.21
P5,0,0,62,1.780278266161255e-06,0.21
PO3,0,0,62,2.0469295099286463e-06,0.21
O1,0,0,62,1.733578576740401e-06,0.21
Pz,0,0,62,1.582335646800796e-06,0.21
POz,0,0,62,1.6149012005060288e-06,0.21
Oz,0,0,62,-1.352838695772783e-07,0.21
Iz,0,0,62,-1.2435391276540365e-06,0.21
O2,0,0,63,-1.1839457510926805e-06,0.215
PO4,0,0,63,-4.793410554198867e-07,0.215
P4,0,0,63,-8.214002838606998e-07,0.215
P6,0,0,63,-2.2007961161498105e-06,0.215
P2,0,0,63,4.47764823613581e-07,0.215
P1,0,0,63,2.0997189297284055e-06,0.215
P3,0,0,63,2.2735494584814823e-06,0.215
P5,0,0,63,1.869609768578594e-06,0.215
PO3,0,0,63,1.631116264148201e-06,0.215
O1,0,0,63,1.1235425260789304e-06,0.215
Pz,0,0,63,1.3465631242704479e-06,0.215
POz,0,0,63,1.1472905921071672e-06,0.215
Oz,0,0,63,-6.896107553880449e-07,0.215
Iz,0,0,63,-2.232043734999353e-06,0.215
O2,0,0,64,-1.2062893339786085e-06,0.22
PO4,0,0,64,-4.548908948099125e-07,0.22
P4,0,0,64,-6.435276183086013e-07,0.22
P6,0,0,64,-2.279436652906708e-06,0.22
P2,0,0,64,4.1342554161653717e-07,0.22
P1,0,0,64,2.058928318831661e-06,0.22
P3,0,0,64,2.300243873091522e-06,0.22
P5,0,0,64,1.9350301709476237e-06,0.22
PO3,0,0,64,1.476722493643548e-06,0.22
O1,0,0,64,6.507333000698017e-07,0.22
Pz,0,0,64,1.4360150119564531e-06,0.22
POz,0,0,64,1.047552311600531e-06,0.22
Oz,0,0,64,-7.159435762258285e-07,0.22
Iz,0,0,64,-2.4242461229794033e-06,0.22
O2,0,0,65,-7.520000887752041e-07,0.225
PO4,0,0,65,-1.9922547252102313e-07,0.225
P4,0,0,65,-2.3556552203094587e-07,0.225
P6,0,0,65,-1.7267051958068914e-06,0.225
P2,0,0,65,5.804531430412939e-07,0.225
P1,0,0,65,1.947797286759132e-06,0.225
P3,0,0,65,1.904283380953568e-06,0.225
P5,0,0,65,1.2635069487502853e-06,0.225
PO3,0,0,65,1.317805129435682e-06,0.225
O1,0,0,65,9.320202329209933e-07,0.225
Pz,0,0,65,1.2460419482845206e-06,0.225
POz,0,0,65,1.117486270835824e-06,0.225
Oz,0,0,65,-3.768766071136215e-07,0.225
Iz,0,0,65,-1.9381881578936884e-06,0.225
O2,0,0,66,-6.447674735665588e-07,0.23
PO4,0,0,66,-3.116213494790861e-07,0.23
P4,0,0,66,-2.4778294542025826e-07,0.23
P6,0,0,66,-1.4725521200194104e-06,0.23
P2,0,0,66,5.161808109292556e-07,0.23
P1,0,0,66,1.8746345267219447e-06,0.23
P3,0,0,66,2.058328696233233e-06,0.23
P5,0,0,66,1.7788992239181836e-06,0.23
PO3,0,0,66,1.4555682517598343e-06,0.23
O1,0,0,66,1.2096890931452608e-06,0.23
Pz,0,0,66,9.681801715880823e-07,0.23
POz,0,0,66,1.1202886016960042e-06,0.23
Oz,0,0,66,-1.982996975618609e-07,0.23
Iz,0,0,66,-1.6583652734357383e-06,0.23
O2,0,0,67,-3.375344998212307e-08,0.23500000000000001
PO4,0,0,67,2.37512326969537e-07,0.23500000000000001
P4,0,0,67,5.989878359870738e-08,0.23500000000000001
P6,0,0,67,-1.0924793603460835e-06,0.23500000000000001
P2,0,0,67,7.236025023331948e-07,0.23500000000000001
P1,0,0,67,2.1470521375659142e-06,0.23500000000000001
P3,0,0,67,2.3294928429773138e-06,0.23500000000000001
P5,0,0,67,1.778759121067697e-06,0.23500000000000001
PO3,0,0,67,1.7213592092555315e-06,0.23500000000000001
O1,0,0,67,1.326540602512997e-06,0.23500000000000001
Pz,0,0,67,1.10032399297415e-06,0.23500000000000001
POz,0,0,67,1.5501658462157198e-06,0.23500000000000001
Oz,0,0,67,4.360416686288211e-07,0.23500000000000001
Iz,0,0,67,-1.234260912451394e-06,0.23500000000000001
O2,0,0,68,5.651121050647588e-07,0.24000000000000002
PO4,0,0,68,3.37444656063034e-07,0.24000000000000002
P4,0,0,68,2.989852771104267e-07,0.24000000000000002
P6,0,0,68,-9.206549697423852e-07,0.24000000000000002
P2,0,0,68,8.277338046124424e-07,0.24000000000000002
P1,0,0,68,2.36510043450942e-06,0.24000000000000002
P3,0,0,68,2.4873962923502445e-06,0.24000000000000002
P5,0,0,68,1.8886000326610494e-06,0.24000000000000002
PO3,0,0,68,2.054671642227798e-06,0.24000000000000002
O1,0,0,68,1.9003085220020446e-06,0.24000000000000002
Pz,0,0,68,1.2632308340530152e-06,0.24000000000000002
POz,0,0,68,2.045094809330122e-06,0.24000000000000002
Oz,0,0,68,1.1070827182092916e-06,0.24000000000000002
Iz,0,0,68,-8.626981561384613e-07,0.24000000000000002
O2,0,0,69,5.302072314354441e-07,0.24500000000000002
PO4,0,0,69,4.351309376059945e-07,0.24500000000000002
P4,0,0,69,1.0839771425596058e-07,0.24500000000000002
P6,0,0,69,-8.767901555870179e-07,0.24500000000000002
P2,0,0,69,6.507794286712622e-07,0.24500000000000002
P1,0,0,69,2.1584372845427386e-06,0.24500000000000002
P3,0,0,69,2.1968686687842567e-06,0.24500000000000002
P5,0,0,69,1.5035102390079255e-06,0.24500000000000002
PO3,0,0,69,1.7932366453689198e-06,0.24500000000000002
O1,0,0,69,1.7069716589927874e-06,0.24500000000000002
Pz,0,0,69,1.2889642416329607e-06,0.24500000000000002
POz,0,0,69,1.902966618695246e-06,0.24500000000000002
Oz,0,0,69,9.731758325293097e-07,0.24500000000000002
Iz,0,0,69,-9.348048304873795e-07,0.24500000000000002
O2,0,0,70,1.1561942660177532e-06,0.25
PO4,0,0,70,9.750758213991129e-07,0.25
P4,0,0,70,5.572556726427532e-07,0.25
P6,0,0,70,-4.227150480638261e-07,0.25
P2,0,0,70,1.231339426518777e-06,0.25
P1,0,0,70,2.56391169158474e-06,0.25
P3,0,0,70,2.2713783427850974e-06,0.25
P5,0,0,70,1.5406329647530683e-06,0.25
PO3,0,0,70,2.1595325214053798e-06,0.25
O1,0,0,70,1.987943441833047e-06,0.25
Pz,0,0,70,1.773305834225455e-06,0.25
POz,0,0,70,2.4461844240965057e-06,0.25
Oz,0,0,70,1.2938226918473536e-06,0.25
Iz,0,0,70,-5.648496940085713e-07,0.25
O2,0,0,71,1.4811439035238435e-06,0.255
PO4,0,0,71,1.1580143509108278e-06,0.255
P4,0,0,71,7.10230559477123e-07,0.255
P6,0,0,71,-2.5290221605369203e-07,0.255
P2,0,0,71,1.4643987722516627e-06,0.255
P1,0,0,71,2.831039766594414e-06,0.255
P3,0,0,71,2.4851213188388152e-06,0.255
P5,0,0,71,1.844104695645571e-06,0.255
PO3,0,0,71,2.5005496753946677e-06,0.255
O1,0,0,71,2.120047138222659e-06,0.255
Pz,0,0,71,2.032239782921846e-06,0.255
POz,0,0,71,2.7909683069642454e-06,0.255
Oz,0,0,71,1.5678734412032644e-06,0.255
Iz,0,0,71,-4.588258169749242e-07,0.255
O2,0,0,72,1.2019898542209783e-06,0.26
PO4,0,0,72,1.0451442705430394e-06,0.26
P4,0,0,72,6.450773129917253e-07,0.26
P6,0,0,72,-4.327964489232495e-07,0.26
P2,0,0,72,1.3170686360109255e-06,0.26
P1,0,0,72,2.973467422882881e-06,0.26
P3,0,0,72,2.599531109376551e-06,0.26
P5,0,0,72,2.0294257305356805e-06,0.26
PO3,0,0,72,2.719769919014362e-06,0.26
O1,0,0,72,2.4406613563674253e-06,0.26
Pz,0,0,72,2.168912530272468e-06,0.26
POz,0,0,72,2.772813901760403e-06,0.26
Oz,0,0,72,1.3060746913340826e-06,0.26
Iz,0,0,72,-5.493532936851424e-07,0.26
O2,0,0,73,4.2903312906777263e-07,0.265
PO4,0,0,73,6.323834500199335e-07,0.265
P4,0,0,73,5.033301236966158e-07,0.265
P6,0,0,73,-7.316226281192682e-07,0.265
P2,0,0,73,1.4514550825793279e-06,0.265
P1,0,0,73,2.921613876875469e-06,0.265
P3,0,0,73,2.6644354795874655e-06,0.265
P5,0,0,73,1.99183953548012e-06,0.265
PO3,0,0,73,2.533349380628861e-06,0.265
O1,0,0,73,1.844521839952971e-06,0.265
Pz,0,0,73,2.304090287616343e-06,0.265
POz,0,0,73,2.6922327068234025e-06,0.265
Oz,0,0,73,6.848506887237933e-07,0.265
Iz,0,0,73,-1.3613800821400528e-06,0.265
O2,0,0,74,6.409494382040866e-07,0.27
PO4,0,0,74,1.01995802700836e-06,0.27
P4,0,0,74,6.930450345298502e-07,0.27
P6,0,0,74,-6.379380966157116e-07,0.27
P2,0,0,74,1.6312694099356384e-06,0.27
P1,0,0,74,3.2830843080408886e-06,0.27
P3,0,0,74,2.686658058072285e-06,0.27
P5,0,0,74,1.8228134741002554e-06,0.27
PO3,0,0,74,2.7256841960382417e-06,0.27
O1,0,0,74,1.9759098641833612e-06,0.27
Pz,0,0,74,2.5690575027857763e-06,0.27
POz,0,0,74,2.851309916073126e-06,0.27
Oz,0,0,74,7.915185981383331e-07,0.27
Iz,0,0,74,-1.418463303489905e-06,0.27
O2,0,0,75,-3.69710324801051e-07,0.275
PO4,0,0,75,3.434444253311193e-07,0.275
P4,0,0,75,4.478732365504587e-07,0.275
P6,0,0,75,-1.2301700642339123e-06,0.275
P2,0,0,75,1.4321668132308618e-06,0.275
P1,0,0,75,3.172656730923769e-06,0.275
P3,0,0,75,2.852606647004444e-06,0.275
P5,0,0,75,2.2177255811805704e-06,0.275
PO3,0,0,75,2.6370929051386903e-06,0.275
O1,0,0,75,1.7787821885179528e-06,0.275
Pz,0,0,75,2.4440729957277534e-06,0.275
POz,0,0,75,2.366355025388686e-06,0.275
Oz,0,0,75,2.6510634481990285e-07,0.275
Iz,0,0,75,-1.8247056251226225e-06,0.275
O2,0,0,76,-9.563899450279084e-07,0.28
PO4,0,0,76,-4.108436661547805e-08,0.28
P4,0,0,76,4.736846806669399e-07,0.28
P6,0,0,76,-1.196600168070865e-06,0.28
P2,0,0,76,1.54486367009734e-06,0.28
P1,0,0,76,2.750857558133423e-06,0.28
P3,0,0,76,2.5185251644455947e-06,0.28
P5,0,0,76,1.3367708330070126e-06,0.28
PO3,0,0,76,1.8851673713302584e-06,0.28
O1,0,0,76,7.342817653104122e-07,0.28
Pz,0,0,76,2.3392294536136436e-06,0.28
POz,0,0,76,1.751608679522858e-06,0.28
Oz,0,0,76,-5.796039294324713e-07,0.28
Iz,0,0,76,-2.5877068695293626e-06,0.28
O2,0,0,77,-1.0431760496958374e-06,0.28500000000000003
PO4,0,0,77,-9.973976107179954e-08,0.28500000000000003
P4,0,0,77,5.857391727583347e-07,0.28500000000000003
P6,0,0,77,-1.139214129621282e-06,0.28500000000000003
P2,0,0,77,1.6297748424612552e-06,0.28500000000000003
P1,0,0,77,2.825203281447618e-06,0.28500000000000003
P3,0,0,77,2.5536955861237177e-06,0.28500000000000003
P5,0,0,77,1.2236371087519918e-06,0.28500000000000003
PO3,0,0,77,1.843107874342391e-06,0.28500000000000003
O1,0,0,77,4.887359204106761e-07,0.28500000000000003
Pz,0,0,77,2.5098583996916662e-06,0.28500000000000003
POz,0,0,77,1.681055591848349e-06,0.28500000000000003
Oz,0,0,77,-6.63654260458444e-07,0.28500000000000003
Iz,0,0,77,-2.9240941354903064e-06,0.28500000000000003
O2,0,0,78,-1.4447465290103764e-06,0.29000000000000004
PO4,0,0,78,-6.865853140786925e-07,0.29000000000000004
P4,0,0,78,8.886767068436253e-08,0.29000000000000004
P6,0,0,78,-1.676098118662402e-06,0.29000000000000004
P2,0,0,78,1.2361627793006676e-06,0.29000000000000004
P1,0,0,78,2.5928701718515808e-06,0.29000000000000004
P3,0,0,78,2.354826488788754e-06,0.29000000000000004
P5,0,0,78,1.0284965474024188e-06,0.29000000000000004
PO3,0,0,78,1.4548046841972747e-06,0.29000000000000004
O1,0,0,78,2.2847863886613116e-07,0.29000000000000004
Pz,0,0,78,2.3919242095961418e-06,0.29000000000000004
POz,0,0,78,1.2420447063897591e-06,0.29000000000000004
Oz,0,0,78,-9.636673144378265e-07,0.29000000000000004
Iz,0,0,78,-3.282977032854363e-06,0.29000000000000004
O2,0,0,79,-1.69140919762249e-06,0.29500000000000004
PO4,0,0,79,-9.202804870875464e-07,0.29500000000000004
P4,0,0,79,2.525280663361594e-07,0.29500000000000004
P6,0,0,79,-1.3062611678964814e-06,0.29500000000000004
P2,0,0,79,1.056421673336519e-06,0.29500000000000004
P1,0,0,79,2.1340738278378173e-06,0.29500000000000004
P3,0,0,79,1.8002954997354506e-06,0.29500000000000004
P5,0,0,79,5.313895542733902e-07,0.29500000000000004
PO3,0,0,79,6.753637619708045e-07,0.29500000000000004
O1,0,0,79,-4.486402252419102e-07,0.29500000000000004
Pz,0,0,79,2.0861981127364096e-06,0.29500000000000004
POz,0,0,79,4.757641420159275e-07,0.29500000000000004
Oz,0,0,79,-1.4901892477800595e-06,0.29500000000000004
Iz,0,0,79,-3.652755260723887e-06,0.29500000000000004
O2,0,0,80,-7.569489679592976e-07,0.30000000000000004
PO4,0,0,80,-4.9211560173767905e-08,0.30000000000000004
P4,0,0,80,9.914583946180327e-07,0.30000000000000004
P6,0,0,80,-4.0714700735621927e-07,0.30000000000000004
P2,0,0,80,1.5183101313633445e-06,0.30000000000000004
P1,0,0,80,2.113478234500824e-06,0.30000000000000004
P3,0,0,80,1.4850151219359795e-06,0.30000000000000004
P5,0,0,80,-5.1158183846821516e-08,0.30000000000000004
PO3,0,0,80,6.144524168228782e-07,0.30000000000000004
O1,0,0,80,-3.843681176381505e-07,0.30000000000000004
Pz,0,0,80,2.250179564005602e-06,0.30000000000000004
POz,0,0,80,6.281562549102529e-07,0.30000000000000004
Oz,0,0,80,-1.244908631698946e-06,0.30000000000000004
Iz,0,0,80,-3.5874079361930855e-06,0.30000000000000004
O2,0,0,81,-3.7171005143427195e-07,0.30500000000000005
PO4,0,0,81,-1.0892100932173258e-07,0.30500000000000005
P4,0,0,81,8.655785701680135e-07,0.30500000000000005
P6,0,0,81,-2.1549165759288747e-07,0.30500000000000005
P2,0,0,81,1.2652818925210072e-06,0.30500000000000005
P1,0,0,81,1.7669894086302777e-06,0.30500000000000005
P3,0,0,81,1.378325984452167e-06,0.30500000000000005
P5,0,0,81,1.9050256218051754e-07,0.30500000000000005
PO3,0,0,81,6.176673648125992e-07,0.30500000000000005
O1,0,0,81,-1.6069006954382515e-07,0.30500000000000005
Pz,0,0,81,1.9517884794182894e-06,0.30500000000000005
POz,0,0,81,5.904495963881095e-07,0.30500000000000005
Oz,0,0,81,-8.456805225882791e-07,0.30500000000000005
Iz,0,0,81,-2.9975843731978668e-06,0.30500000000000005
O2,0,0,82,-2.927738838305536e-07,0.31000000000000005
PO4,0,0,82,-1.6698873280260683e-07,0.31000000000000005
P4,0,0,82,1.049943189930306e-06,0.31000000000000005
P6,0,0,82,9.39319936076763e-08,0.31000000000000005
P2,0,0,82,1.0464331885461026e-06,0.31000000000000005
P1,0,0,82,1.3950339512062148e-06,0.31000000000000005
P3,0,0,82,1.252529834880478e-06,0.31000000000000005
P5,0,0,82,-1.487084543461737e-08,0.31000000000000005
PO3,0,0,82,4.0743001855337245e-07,0.31000000000000005
O1,0,0,82,-3.390080460722299e-07,0.31000000000000005
Pz,0,0,82,1.4827138156936165e-06,0.31000000000000005
POz,0,0,82,7.3335761307205915e-09,0.31000000000000005
Oz,0,0,82,-8.992837525001745e-07,0.31000000000000005
Iz,0,0,82,-2.6920686119627374e-06,0.31000000000000005
O2,0,0,83,1.7952649395670024e-07,0.31500000000000006
PO4,0,0,83,7.13812921604316e-08,0.31500000000000006
P4,0,0,83,9.512739730553934e-07,0.31500000000000006
P6,0,0,83,2.937590908970368e-07,0.31500000000000006
P2,0,0,83,1.2507384801969739e-06,0.31500000000000006
P1,0,0,83,1.2452526886721768e-06,0.31500000000000006
P3,0,0,83,1.0678864032738185e-06,0.31500000000000006
P5,0,0,83,1.634311295097074e-07,0.31500000000000006
PO3,0,0,83,3.1565794014814103e-07,0.31500000000000006
O1,0,0,83,-4.4548788777921077e-07,0.31500000000000006
Pz,0,0,83,1.3684418216829035e-06,0.31500000000000006
POz,0,0,83,1.8323765210942893e-07,0.31500000000000006
Oz,0,0,83,-8.41978120382109e-07,0.31500000000000006
Iz,0,0,83,-2.784277909977059e-06,0.31500000000000006
O2,0,0,84,5.971313793006943e-07,0.31999999999999995
PO4,0,0,84,2.796715573895159e-07,0.31999999999999995
P4,0,0,84,7.968712265290167e-07,0.31999999999999995
P6,0,0,84,4.446845518609253e-07,0.31999999999999995
P2,0,0,84,1.1919244145755473e-06,0.31999999999999995
P1,0,0,84,1.5614294694406795e-06,0.31999999999999995
P3,0,0,84,1.423537093469589e-06,0.31999999999999995
P5,0,0,84,5.592509066302018e-07,0.31999999999999995
PO3,0,0,84,8.920252089625371e-07,0.31999999999999995
O1,0,0,84,6.164871368471404e-08,0.31999999999999995
Pz,0,0,84,1.4718916488651989e-06,0.31999999999999995
POz,0,0,84,5.196271430614327e-07,0.31999999999999995
Oz,0,0,84,-4.594163497204472e-07,0.31999999999999995
Iz,0,0,84,-2.4315509484358087e-06,0.31999999999999995
O2,0,0,85,2.752000555289317e-07,0.32499999999999996
PO4,0,0,85,-1.3873641870249176e-08,0.32499999999999996
P4,0,0,85,4.7586500470997875e-07,0.32499999999999996
P6,0,0,85,2.0507169526272742e-07,0.32499999999999996
P2,0,0,85,6.962458303046457e-07,0.32499999999999996
P1,0,0,85,1.2941729984131464e-06,0.32499999999999996
P3,0,0,85,1.5127328470663135e-06,0.32499999999999996
P5,0,0,85,1.1691749118461492e-06,0.32499999999999996
PO3,0,0,85,8.629191216544562e-07,0.32499999999999996
O1,0,0,85,3.091901988343779e-07,0.32499999999999996
Pz,0,0,85,1.1982984602972626e-06,0.32499999999999996
POz,0,0,85,8.073122538068667e-08,0.32499999999999996
Oz,0,0,85,-6.652715925035099e-07,0.32499999999999996
Iz,0,0,85,-2.246363184409e-06,0.32499999999999996
O2,0,0,86,8.031368897780736e-08,0.32999999999999996
PO4,0,0,86,-1.6494045822614092e-08,0.32999999999999996
P4,0,0,86,6.26504177740841e-07,0.32999999999999996
P6,0,0,86,3.6825996640784877e-07,0.32999999999999996
P2,0,0,86,7.641876789080238e-07,0.32999999999999996
P1,0,0,86,1.1566030739868053e-06,0.32999999999999996
P3,0,0,86,1.442906525042336e-06,0.32999999999999996
P5,0,0,86,1.0401507237445628e-06,0.32999999999999996
PO3,0,0,86,5.966457594243254e-07,0.32999999999999996
O1,0,0,86,-5.9453882081900555e-08,0.32999999999999996
Pz,0,0,86,1.0449697322083795e-06,0.32999999999999996
POz,0,0,86,5.230868048068077e-08,0.32999999999999996
Oz,0,0,86,-9.121198838573297e-07,0.32999999999999996
Iz,0,0,86,-2.167137768384313e-06,0.32999999999999996
O2,0,0,87,3.5701817538519686e-07,0.33499999999999996
PO4,0,0,87,1.604354123339386e-07,0.33499999999999996
P4,0,0,87,5.969676929203205e-07,0.33499999999999996
P6,0,0,87,3.6565585224198174e-07,0.33499999999999996
P2,0,0,87,9.314125287874664e-07,0.33499999999999996
P1,0,0,87,1.5541110580228832e-06,0.33499999999999996
P3,0,0,87,1.6991813539932308e-06,0.33499999999999996
P5,0,0,87,1.3601068754096973e-06,0.33499999999999996
PO3,0,0,87,1.2364957496587092e-06,0.33499999999999996
O1,0,0,87,5.777998158325508e-07,0.33499999999999996
Pz,0,0,87,1.3731697122674448e-06,0.33499999999999996
POz,0,0,87,7.561862112426289e-07,0.33499999999999996
Oz,0,0,87,-4.1728412036952146e-07,0.33499999999999996
Iz,0,0,87,-2.0476483836832684e-06,0.33499999999999996
O2,0,0,88,-4.2692975933183225e-07,0.33999999999999997
PO4,0,0,88,-3.4835391164185e-07,0.33999999999999997
P4,0,0,88,4.2628092272000054e-07,0.33999999999999997
P6,0,0,88,1.1297448828978601e-07,0.33999999999999997
P2,0,0,88,6.326974915471346e-07,0.33999999999999997
P1,0,0,88,1.3880033879019988e-06,0.33999999999999997
P3,0,0,88,1.6998721679966803e-06,0.33999999999999997
P5,0,0,88,1.2024345248251473e-06,0.33999999999999997
PO3,0,0,88,1.120656725764177e-06,0.33999999999999997
O1,0,0,88,5.381929695123113e-07,0.33999999999999997
Pz,0,0,88,9.99311493692807e-07,0.33999999999999997
POz,0,0,88,4.410630682405437e-07,0.33999999999999997
Oz,0,0,88,-7.626690061180652e-07,0.33999999999999997
Iz,0,0,88,-2.1547429567688927e-06,0.33999999999999997
O2,0,0,89,-9.10246492861731e-07,0.345
PO4,0,0,89,-5.119816406709174e-07,0.345
P4,0,0,89,4.707475486472397e-07,0.345
P6,0,0,89,1.7666161859436928e-07,0.345
P2,0,0,89,7.232974530171268e-07,0.345
P1,0,0,89,1.3961909051089096e-06,0.345
P3,0,0,89,1.6808730203995476e-06,0.345
P5,0,0,89,1.4625292854279933e-06,0.345
PO3,0,0,89,8.497984893554498e-07,0.345
O1,0,0,89,-7.666391285663656e-08,0.345
Pz,0,0,89,9.927178894918418e-07,0.345
POz,0,0,89,1.6113736737635e-07,0.345
Oz,0,0,89,-1.4881709489957277e-06,0.345
Iz,0,0,89,-2.722251660462931e-06,0.345
O2,0,0,90,-7.686736863455737e-07,0.35
PO4,0,0,90,-2.435671139389943e-07,0.35
P4,0,0,90,8.707255443986071e-07,0.35
P6,0,0,90,4.3548076584162263e-07,0.35
P2,0,0,90,1.0940497890143334e-06,0.35
P1,0,0,90,1.6524356438807977e-06,0.35
P3,0,0,90,1.6397495376245409e-06,0.35
P5,0,0,90,1.1503018818439834e-06,0.35
PO3,0,0,90,9.34747215858583e-07,0.35
O1,0,0,90,-2.0818385043286077e-07,0.35
Pz,0,0,90,1.3922514777992163e-06,0.35
POz,0,0,90,5.176363916525019e-07,0.35
Oz,0,0,90,-1.477849716554325e-06,0.35
Iz,0,0,90,-2.985138774013421e-06,0.35
O2,0,0,91,-1.1272290554136026e-06,0.355
PO4,0,0,91,-5.473104986335767e-07,0.355
P4,0,0,91,8.024699617522503e-07,0.355
P6,0,0,91,3.211748914127036e-07,0.355
P2,0,0,91,1.145499589199228e-06,0.355
P1,0,0,91,1.8042303066910055e-06,0.355
P3,0,0,91,1.6540317221996156e-06,0.355
P5,0,0,91,1.1027927686460236e-06,0.355
PO3,0,0,91,1.02447266970015e-06,0.355
O1,0,0,91,-8.091160789050758e-08,0.355
Pz,0,0,91,1.3953517979421456e-06,0.355
POz,0,0,91,7.213905190181963e-07,0.355
Oz,0,0,91,-1.4523239148531282e-06,0.355
Iz,0,0,91,-2.7591594712920847e-06,0.355
O2,0,0,92,-2.184701373019993e-06,0.36
PO4,0,0,92,-1.017776658508874e-06,0.36
P4,0,0,92,4.34102250018076e-07,0.36
P6,0,0,92,-9.221765117325177e-08,0.36
P2,0,0,92,8.889543337230769e-07,0.36
P1,0,0,92,1.4076739808009323e-06,0.36
P3,0,0,92,1.388012296882461e-06,0.36
P5,0,0,92,6.695142472420663e-07,0.36
PO3,0,0,92,3.664753030164497e-07,0.36
O1,0,0,92,-8.544421810800016e-07,0.36
Pz,0,0,92,1.2348917724975597e-06,0.36
POz,0,0,92,1.3094547803815288e-07,0.36
Oz,0,0,92,-2.413629400243288e-06,0.36
Iz,0,0,92,-3.634531463001401e-06,0.36
O2,0,0,93,-1.8288608753702369e-06,0.365
PO4,0,0,93,-6.724450961017351e-07,0.365
P4,0,0,93,6.529812210751957e-07,0.365
P6,0,0,93,1.524684016719047e-07,0.365
P2,0,0,93,1.1577543343490956e-06,0.365
P1,0,0,93,1.4095831871415791e-06,0.365
P3,0,0,93,1.0295869913554821e-06,0.365
P5,0,0,93,3.2758221761605704e-07,0.365
PO3,0,0,93,1.2519371604217663e-07,0.365
O1,0,0,93,-1.3824266123687563e-06,0.365
Pz,0,0,93,1.4231773652882472e-06,0.365
POz,0,0,93,2.4570764118191103e-07,0.365
Oz,0,0,93,-2.365929580971362e-06,0.365
Iz,0,0,93,-3.6833547318200617e-06,0.365
O2,0,0,94,-1.8644461862170949e-06,0.37
PO4,0,0,94,-9.353188128214212e-07,0.37
P4,0,0,94,3.850677861932543e-07,0.37
P6,0,0,94,-1.76271713266917e-07,0.37
P2,0,0,94,8.495487176774881e-07,0.37
P1,0,0,94,1.2731624091588499e-06,0.37
P3,0,0,94,1.0516015479979473e-06,0.37
P5,0,0,94,3.2693138965801356e-07,0.37
PO3,0,0,94,9.106633806777394e-08,0.37
O1,0,0,94,-1.0941784591748826e-06,0.37
Pz,0,0,94,1.3192242093229328e-06,0.37
POz,0,0,94,3.139124952846343e-07,0.37
Oz,0,0,94,-2.0374699798820535e-06,0.37
Iz,0,0,94,-3.350204833803202e-06,0.37
O2,0,0,95,-2.372100404010723e-06,0.375
PO4,0,0,95,-1.277676381490419e-06,0.375
P4,0,0,95,3.5354289339911635e-07,0.375
P6,0,0,95,-1.4925830106281224e-07,0.375
P2,0,0,95,6.676906109280833e-07,0.375
P1,0,0,95,9.322302112726908e-07,0.375
P3,0,0,95,5.68386531046237e-07,0.375
P5,0,0,95,-2.391825012601944e-07,0.375
PO3,0,0,95,-5.564789487703122e-07,0.375
O1,0,0,95,-1.6120549536198652e-06,0.375
Pz,0,0,95,1.0611489006319395e-06,0.375
POz,0,0,95,-2.1594886944178303e-07,0.375
Oz,0,0,95,-2.4808669840828092e-06,0.375
Iz,0,0,95,-3.4121629113114358e-06,0.375
O2,0,0,96,-2.250326392252785e-06,0.38
PO4,0,0,96,-1.0680729286818495e-06,0.38
P4,0,0,96,3.9428383500038333e-07,0.38
P6,0,0,96,-1.4421135684623945e-07,0.38
P2,0,0,96,6.753158313440101e-07,0.38
P1,0,0,96,7.470539756316708e-07,0.38
P3,0,0,96,3.625629995890438e-07,0.38
P5,0,0,96,-3.665496941477642e-07,0.38
PO3,0,0,96,-8.193541996031717e-07,0.38
O1,0,0,96,-2.2279740060559707e-06,0.38
Pz,0,0,96,1.0229246931681245e-06,0.38
POz,0,0,96,-3.343076865059031e-07,0.38
Oz,0,0,96,-2.7352217738992955e-06,0.38
Iz,0,0,96,-3.848387786533041e-06,0.38
O2,0,0,97,-2.039429690286785e-06,0.385
PO4,0,0,97,-1.0762143639511177e-06,0.385
P4,0,0,97,4.12862311507389e-07,0.385
P6,0,0,97,-1.668886640351812e-07,0.385
P2,0,0,97,6.184718119480269e-07,0.385
P1,0,0,97,6.250750490507825e-07,0.385
P3,0,0,97,3.4507757174604544e-07,0.385
P5,0,0,97,-3.8875862143834947e-07,0.385
PO3,0,0,97,-8.558528893558537e-07,0.385
O1,0,0,97,-2.1020089584646154e-06,0.385
Pz,0,0,97,8.216603902732204e-07,0.385
POz,0,0,97,-3.4553994474250137e-07,0.385
Oz,0,0,97,-2.607533344735603e-06,0.385
Iz,0,0,97,-3.9272650978884296e-06,0.385
O2,0,0,98,-2.0647817255286326e-06,0.39
PO4,0,0,98,-1.2162625144452493e-06,0.39
P4,0,0,98,5.25813274326364e-07,0.39
P6,0,0,98,9.493021614514519e-08,0.39
P2,0,0,98,4.871130600249918e-07,0.39
P1,0,0,98,3.1398876496864066e-07,0.39
P3,0,0,98,3.30383302247953e-07,0.39
P5,0,0,98,-2.0498474677890287e-07,0.39
PO3,0,0,98,-9.012714420195719e-07,0.39
O1,0,0,98,-1.6845442906257906e-06,0.39
Pz,0,0,98,5.678718542262234e-07,0.39
POz,0,0,98,-5.892854530996514e-07,0.39
Oz,0,0,98,-2.692865353233367e-06,0.39
Iz,0,0,98,-3.4278820076193453e-06,0.39
O2,0,0,99,-1.5132658825209124e-06,0.395
PO4,0,0,99,-9.343525209588094e-07,0.395
P4,0,0,99,6.169970171254282e-07,0.395
P6,0,0,99,2.7217904830569745e-07,0.395
P2,0,0,99,5.729296220968722e-07,0.395
P1,0,0,99,2.599617536996408e-07,0.395
P3,0,0,99,9.299165825272669e-08,0.395
P5,0,0,99,-3.7693589052410757e-07,0.395
PO3,0,0,99,-9.721480664306276e-07,0.395
O1,0,0,99,-1.7310689360840587e-06,0.395
Pz,0,0,99,4.0364539881677394e-07,0.395
POz,0,0,99,-6.18564618788338e-07,0.395
Oz,0,0,99,-2.376718909781263e-06,0.395
Iz,0,0,99,-3.057170455702044e-06,0.395
O2,0,0,100,-1.3158572653152996e-06,0.4
PO4,0,0,100,-7.024269487376389e-07,0.4
P4,0,0,100,6.71821768491597e-07,0.4
P6,0,0,100,4.566247886717784e-07,0.4
P2,0,0,100,6.517156963162672e-07,0.4
P1,0,0,100,3.199835471937861e-07,0.4
P3,0,0,100,2.818880817450125e-07,0.4
P5,0,0,100,-2.1105243182585371e-07,0.4
PO3,0,0,100,-8.511569253970867e-07,0.4
O1,0,0,100,-1.3699824989959175e-06,0.4
Pz,0,0,100,5.133745722359723e-07,0.4
POz,0,0,100,-6.425747902187762e-07,0.4
Oz,0,0,100,-2.1127021308596995e-06,0.4
Iz,0,0,100,-3.0385511969924465e-06,0.4
O2,0,0,101,-1.3734796866268576e-06,0.405
PO4,0,0,101,-1.035708174509563e-06,0.405
P4,0,0,101,3.53234870460326e-07,0.405
P6,0,0,101,3.612016507305818e-07,0.405
P2,0,0,101,6.188745195120036e-08,0.405
P1,0,0,101,1.601211621304252e-07,0.405
P3,0,0,101,3.329211398742179e-07,0.405
P5,0,0,101,-6.48604210489568e-08,0.405
PO3,0,0,101,-8.132672277989441e-07,0.405
O1,0,0,101,-1.072641698661278e-06,0.405
Pz,0,0,101,-3.124586099160674e-08,0.405
POz,0,0,101,-9.914054513535773e-07,0.405
Oz,0,0,101,-1.9879498136509336e-06,0.405
Iz,0,0,101,-2.6549626808379834e-06,0.405
O2,0,0,102,-4.86865539120509e-07,0.41000000000000003
PO4,0,0,102,-4.6380396071321543e-07,0.41000000000000003
P4,0,0,102,6.930549608251548e-07,0.41000000000000003
P6,0,0,102,8.010463789155825e-07,0.41000000000000003
P2,0,0,102,1.617771831168832e-07,0.41000000000000003
P1,0,0,102,2.5324163531739215e-07,0.41000000000000003
P3,0,0,102,5.674321892886984e-07,0.41000000000000003
P5,0,0,102,3.8918589939792984e-07,0.41000000000000003
PO3,0,0,102,-3.7106829599214775e-07,0.41000000000000003
O1,0,0,102,-1.897907507598253e-07,0.41000000000000003
Pz,0,0,102,3.0016675222911294e-08,0.41000000000000003
POz,0,0,102,-6.052411121016898e-07,0.41000000000000003
Oz,0,0,102,-1.3522462029647375e-06,0.41000000000000003
Iz,0,0,102,-1.9239696509037227e-06,0.41000000000000003
O2,0,0,103,-4.74759631772776e-07,0.41500000000000004
PO4,0,0,103,-3.2358858072675717e-07,0.41500000000000004
P4,0,0,103,5.984714036146473e-07,0.41500000000000004
P6,0,0,103,6.331065228626691e-07,0.41500000000000004
P2,0,0,103,3.052608983778936e-07,0.41500000000000004
P1,0,0,103,3.3711855134166384e-07,0.41500000000000004
P3,0,0,103,7.701729985779061e-07,0.41500000000000004
P5,0,0,103,6.114890146128448e-07,0.41500000000000004
PO3,0,0,103,-1.5563286515982057e-07,0.41500000000000004
O1,0,0,103,1.2343204355899416e-08,0.41500000000000004
Pz,0,0,103,1.076650611732844e-07,0.41500000000000004
POz,0,0,103,-4.1681021621456374e-07,0.41500000000000004
Oz,0,0,103,-1.2308632917178768e-06,0.41500000000000004
Iz,0,0,103,-1.8573192067650594e-06,0.41500000000000004
O2,0,0,104,-3.7178834916810726e-07,0.42000000000000004
PO4,0,0,104,-2.1869707336694387e-07,0.42000000000000004
P4,0,0,104,6.550451344585439e-07,0.42000000000000004
P6,0,0,104,8.511151961918803e-07,0.42000000000000004
P2,0,0,104,3.6533302456294626e-07,0.42000000000000004
P1,0,0,104,4.0061514174274154e-07,0.42000000000000004
P3,0,0,104,1.0329499186423598e-06,0.42000000000000004
P5,0,0,104,7.920168959465201e-07,0.42000000000000004
PO3,0,0,104,1.2576684063273967e-07,0.42000000000000004
O1,0,0,104,-7.928260947034189e-08,0.42000000000000004
Pz,0,0,104,1.862409408237609e-07,0.42000000000000004
POz,0,0,104,-2.978322204527806e-07,0.42000000000000004
Oz,0,0,104,-1.1155252751313475e-06,0.42000000000000004
Iz,0,0,104,-1.8717077695156956e-06,0.42000000000000004
O2,0,0,105,-3.6526207138353596e-08,0.42500000000000004
PO4,0,0,105,-3.09084157087142e-08,0.42500000000000004
P4,0,0,105,7.90359458030345e-07,0.42500000000000004
P6,0,0,105,7.626772882707324e-07,0.42500000000000004
P2,0,0,105,4.528141133921517e-07,0.42500000000000004
P1,0,0,105,5.951130884063728e-07,0.42500000000000004
P3,0,0,105,1.24474272976759e-06,0.42500000000000004
P5,0,0,105,1.1323771371169614e-06,0.42500000000000004
PO3,0,0,105,4.397413521755841e-07,0.42500000000000004
O1,0,0,105,3.3067080823367527e-07,0.42500000000000004
Pz,0,0,105,3.365852769745392e-07,0.42500000000000004
POz,0,0,105,-2.6866118710413847e-08,0.42500000000000004
Oz,0,0,105,-6.901205019087916e-07,0.42500000000000004
Iz,0,0,105,-1.5298908830018785e-06,0.42500000000000004
O2,0,0,106,1.1435290406782315e-07,0.43000000000000005
PO4,0,0,106,2.8122975364819073e-07,0.43000000000000005
P4,0,0,106,1.121353461708824e-06,0.43000000000000005
P6,0,0,106,1.148415641717402e-06,0.43000000000000005
P2,0,0,106,6.199476267541011e-07,0.43000000000000005
P1,0,0,106,6.935645550246426e-07,0.43000000000000005
P3,0,0,106,8.190709116173173e-07,0.43000000000000005
P5,0,0,106,1.0194180594709888e-06,0.43000000000000005
PO3,0,0,106,5.666783101080267e-07,0.43000000000000005
O1,0,0,106,6.510154787863615e-07,0.43000000000000005
Pz,0,0,106,2.7187298863949076e-07,0.43000000000000005
POz,0,0,106,3.790320823585157e-08,0.43000000000000005
Oz,0,0,106,-4.4025195934159034e-07,0.43000000000000005
Iz,0,0,106,-1.332453997970335e-06,0.43000000000000005
O2,0,0,107,2.0272881324913052e-07,0.43500000000000005
PO4,0,0,107,3.667240812616324e-07,0.43500000000000005
P4,0,0,107,8.637355038778601e-07,0.43500000000000005
P6,0,0,107,9.374589152889568e-07,0.43500000000000005
P2,0,0,107,6.159198366090918e-07,0.43500000000000005
P1,0,0,107,8.116635400444073e-07,0.43500000000000005
P3,0,0,107,1.1953437351678152e-06,0.43500000000000005
P5,0,0,107,1.427446763047485e-06,0.43500000000000005
PO3,0,0,107,7.797249374607323e-07,0.43500000000000005
O1,0,0,107,4.898569890883921e-07,0.43500000000000005
Pz,0,0,107,6.177456710170014e-07,0.43500000000000005
POz,0,0,107,4.278786289153014e-07,0.43500000000000005
Oz,0,0,107,-3.2774777393138433e-07,0.43500000000000005
Iz,0,0,107,-1.4303902622932828e-06,0.43500000000000005
O2,0,0,108,4.576015065521572e-07,0.44000000000000006
PO4,0,0,108,6.804055223314007e-07,0.44000000000000006
P4,0,0,108,1.235246655071137e-06,0.44000000000000006
P6,0,0,108,1.586102394992043e-06,0.44000000000000006
P2,0,0,108,8.752730133275875e-07,0.44000000000000006
P1,0,0,108,1.1393903006672388e-06,0.44000000000000006
P3,0,0,108,1.5048159495032497e-06,0.44000000000000006
P5,0,0,108,1.673840826363088e-06,0.44000000000000006
PO3,0,0,108,1.1787740658593504e-06,0.44000000000000006
O1,0,0,108,8.727254165668365e-07,0.44000000000000006
Pz,0,0,108,7.914279192657906e-07,0.44000000000000006
POz,0,0,108,7.788204291721501e-07,0.44000000000000006
Oz,0,0,108,3.1202793390466567e-08,0.44000000000000006
Iz,0,0,108,-1.3209821335347978e-06,0.44000000000000006
O2,0,0,109,4.4118281019785923e-07,0.44500000000000006
PO4,0,0,109,7.959150723302561e-07,0.44500000000000006
P4,0,0,109,1.2086148612344341e-06,0.44500000000000006
P6,0,0,109,1.551580965417303e-06,0.44500000000000006
P2,0,0,109,7.027781304101674e-07,0.44500000000000006
P1,0,0,109,1.30978730639219e-06,0.44500000000000006
P3,0,0,109,1.5646352268227285e-06,0.44500000000000006
P5,0,0,109,1.6183647898857499e-06,0.44500000000000006
PO3,0,0,109,1.3066348310339596e-06,0.44500000000000006
O1,0,0,109,1.1278686084817638e-06,0.44500000000000006
Pz,0,0,109,1.0094725096290735e-06,0.44500000000000006
POz,0,0,109,1.1047581470072223e-06,0.44500000000000006
Oz,0,0,109,1.3172947175906594e-07,0.44500000000000006
Iz,0,0,109,-8.338508963424016e-07,0.44500000000000006
O2,0,0,110,5.061037170179326e-07,0.45000000000000007
PO4,0,0,110,7.36457791656861e-07,0.45000000000000007
P4,0,0,110,9.017625396958945e-07,0.45000000000000007
P6,0,0,110,1.3306518062508163e-06,0.45000000000000007
P2,0,0,110,7.05229468329922e-07,0.45000000000000007
P1,0,0,110,1.300907489064994e-06,0.45000000000000007
P3,0,0,110,1.5457917923476619e-06,0.45000000000000007
P5,0,0,110,1.7552674385065818e-06,0.45000000000000007
PO3,0,0,110,1.2964571697494217e-06,0.45000000000000007
O1,0,0,110,8.948594868866085e-07,0.45000000000000007
Pz,0,0,110,1.0198421785080515e-06,0.45000000000000007
POz,0,0,110,9.151537892888529e-07,0.45000000000000007
Oz,0,0,110,7.94453086776338e-08,0.45000000000000007
Iz,0,0,110,-8.325792634238978e-07,0.45000000000000007
O2,0,0,111,5.102934405645524e-07,0.45500000000000007
PO4,0,0,111,7.660385106550758e-07,0.45500000000000007
P4,0,0,111,1.019759080693649e-06,0.45500000000000007
P6,0,0,111,1.367770716646588e-06,0.45500000000000007
P2,0,0,111,7.206980945532815e-07,0.45500000000000007
P1,0,0,111,1.2376417447699538e-06,0.45500000000000007
P3,0,0,111,1.2079850167237145e-06,0.45500000000000007
P5,0,0,111,1.7015402800798233e-06,0.45500000000000007
PO3,0,0,111,1.1776616140754383e-06,0.45500000000000007
O1,0,0,111,1.1955730841407494e-06,0.45500000000000007
Pz,0,0,111,1.0965875504482756e-06,0.45500000000000007
POz,0,0,111,1.0066555219072036e-06,0.45500000000000007
Oz,0,0,111,2.513508953424373e-07,0.45500000000000007
Iz,0,0,111,-5.138220061771826e-07,0.45500000000000007
O2,0,0,112,5.870467995893159e-07,0.4600000000000001
PO4,0,0,112,6.987546220823302e-07,0.4600000000000001
P4,0,0,112,9.6494367557624e-07,0.4600000000000001
P6,0,0,112,1.1852454598411496e-06,0.4600000000000001
P2,0,0,112,8.115298367607831e-07,0.4600000000000001
P1,0,0,112,1.318097436600103e-06,0.4600000000000001
P3,0,0,112,1.3273855013100568e-06,0.4600000000000001
P5,0,0,112,1.569862474763621e-06,0.4600000000000001
PO3,0,0,112,1.1657800200415303e-06,0.4600000000000001
O1,0,0,112,1.2245387139163971e-06,0.4600000000000001
Pz,0,0,112,1.1931547178482637e-06,0.4600000000000001
POz,0,0,112,9.96116985018216e-07,0.4600000000000001
Oz,0,0,112,3.853590439098767e-07,0.4600000000000001
Iz,0,0,112,-3.377208575885823e-07,0.4600000000000001
O2,0,0,113,-9.052072633636829e-08,0.4650000000000001
PO4,0,0,113,2.8345265725694873e-07,0.4650000000000001
P4,0,0,113,9.219940714986859e-07,0.4650000000000001
P6,0,0,113,1.0553216616989601e-06,0.4650000000000001
P2,0,0,113,7.501727296942443e-07,0.4650000000000001
P1,0,0,113,1.2372091124383256e-06,0.4650000000000001
P3,0,0,113,1.3417287708134339e-06,0.4650000000000001
P5,0,0,113,1.2894177684578422e-06,0.4650000000000001
PO3,0,0,113,5.563835332434353e-07,0.4650000000000001
O1,0,0,113,4.541888621871007e-07,0.4650000000000001
Pz,0,0,113,1.1249724860532385e-06,0.4650000000000001
POz,0,0,113,5.749832710184242e-07,0.4650000000000001
Oz,0,0,113,-2.0894862520607363e-07,0.4650000000000001
Iz,0,0,113,-8.204273496108195e-07,0.4650000000000001
O2,0,0,114,-4.5796487197981933e-07,0.4700000000000001
PO4,0,0,114,7.938478662287707e-08,0.4700000000000001
P4,0,0,114,1.052481984471467e-06,0.4700000000000001
P6,0,0,114,9.91935073027593e-07,0.4700000000000001
P2,0,0,114,7.780039700541052e-07,0.4700000000000001
P1,0,0,114,9.313023547167912e-07,0.4700000000000001
P3,0,0,114,8.453141912592763e-07,0.4700000000000001
P5,0,0,114,8.427699226254442e-07,0.4700000000000001
PO3,0,0,114,1.915566734592485e-07,0.4700000000000001
O1,0,0,114,3.3238427038863066e-08,0.4700000000000001
Pz,0,0,114,1.125435739736049e-06,0.4700000000000001
POz,0,0,114,3.44078924556266e-07,0.4700000000000001
Oz,0,0,114,-6.8361739963535e-07,0.4700000000000001
Iz,0,0,114,-1.3914756449335278e-06,0.4700000000000001
O2,0,0,115,-5.344945260227924e-07,0.4750000000000001
PO4,0,0,115,1.3836812985525272e-07,0.4750000000000001
P4,0,0,115,1.1304740198690163e-06,0.4750000000000001
P6,0,0,115,1.1761178519718643e-06,0.4750000000000001
P2,0,0,115,9.94902264052178e-07,0.4750000000000001
P1,0,0,115,8.355560789430273e-07,0.4750000000000001
P3,0,0,115,7.358912742936539e-07,0.4750000000000001
P5,0,0,115,5.122488099078705e-07,0.4750000000000001
PO3,0,0,115,1.278552902604314e-07,0.4750000000000001
O1,0,0,115,1.098197153930963e-07,0.4750000000000001
Pz,0,0,115,1.1429915294899183e-06,0.4750000000000001
POz,0,0,115,1.295108702670046e-07,0.4750000000000001
Oz,0,0,115,-5.554558213227144e-07,0.4750000000000001
Iz,0,0,115,-1.3511789146784188e-06,0.4750000000000001
O2,0,0,116,-4.5181577050758543e-07,0.48
PO4,0,0,116,-4.335795467847981e-08,0.48
P4,0,0,116,1.16308586204812e-06,0.48
P6,0,0,116,1.1384392223232476e-06,0.48
P2,0,0,116,1.0150760662906592e-06,0.48
P1,0,0,116,7.531914369944883e-07,0.48
P3,0,0,116,6.43669482060644e-07,0.48
P5,0,0,116,5.702175672435919e-07,0.48
PO3,0,0,116,-1.5785828168001402e-09,0.48
O1,0,0,116,-3.018160633626204e-07,0.48
Pz,0,0,116,1.0895979076071952e-06,0.48
POz,0,0,116,-1.3156102848019295e-07,0.48
Oz,0,0,116,-7.322166892484765e-07,0.48
Iz,0,0,116,-1.1968358018434846e-06,0.48
O2,0,0,117,-1.5067113180168784e-07,0.485
PO4,0,0,117,2.412365334096337e-07,0.485
P4,0,0,117,1.3629276894340367e-06,0.485
P6,0,0,117,1.4056184029139642e-06,0.485
P2,0,0,117,1.0025932838564539e-06,0.485
P1,0,0,117,8.862439227028437e-07,0.485
P3,0,0,117,7.08312579338173e-07,0.485
P5,0,0,117,3.982258564109605e-07,0.485
PO3,0,0,117,1.7315784758458023e-07,0.485
O1,0,0,117,-2.550202566486033e-07,0.485
Pz,0,0,117,1.2126498864638399e-06,0.485
POz,0,0,117,2.7467603563666896e-07,0.485
Oz,0,0,117,-6.447713533393975e-07,0.485
Iz,0,0,117,-1.3260885055458103e-06,0.485
O2,0,0,118,5.288954366764349e-07,0.49
PO4,0,0,118,5.879988324997872e-07,0.49
P4,0,0,118,1.513941592220077e-06,0.49
P6,0,0,118,1.7155629015453271e-06,0.49
P2,0,0,118,1.1449203497174408e-06,0.49
P1,0,0,118,8.990974757651283e-07,0.49
P3,0,0,118,7.747125003564647e-07,0.49
P5,0,0,118,5.955083453829128e-07,0.49
PO3,0,0,118,4.80050853272408e-07,0.49
O1,0,0,118,2.5995744044105666e-07,0.49
Pz,0,0,118,1.1162981383417096e-06,0.49
POz,0,0,118,4.0958695715859985e-07,0.49
Oz,0,0,118,-1.4445095065336874e-07,0.49
Iz,0,0,118,-8.121089040045096e-07,0.49
O2,0,0,119,3.4213293381937203e-07,0.495
PO4,0,0,119,2.987015589157476e-07,0.495
P4,0,0,119,1.2021820418772298e-06,0.495
P6,0,0,119,1.7594912824307874e-06,0.495
P2,0,0,119,8.504314603889155e-07,0.495
P1,0,0,119,5.306043123170253e-07,0.495
P3,0,0,119,4.966772014205225e-07,0.495
P5,0,0,119,3.921154022264794e-07,0.495
PO3,0,0,119,8.025517889062054e-09,0.495
O1,0,0,119,-2.0054113970903942e-07,0.495
Pz,0,0,119,7.27909387249032e-07,0.495
POz,0,0,119,-3.277131752045006e-08,0.495
Oz,0,0,119,-5.413465705140724e-07,0.495
Iz,0,0,119,-1.042324543214237e-06,0.495
O2,0,0,120,1.0949680561912326e-06,0.5
PO4,0,0,120,9.230903558749097e-07,0.5
P4,0,0,120,1.5638486944453888e-06,0.5
P6,0,0,120,2.0174087498018956e-06,0.5
P2,0,0,120,1.0752160225930304e-06,0.5
P1,0,0,120,6.759907850117565e-07,0.5
P3,0,0,120,7.078098157706734e-07,0.5
P5,0,0,120,4.932483242848483e-07,0.5
PO3,0,0,120,3.1097636530887236e-07,0.5
O1,0,0,120,4.4699654201410693e-07,0.5
Pz,0,0,120,8.760340279506646e-07,0.5
POz,0,0,120,5.30713498608689e-07,0.5
Oz,0,0,120,-4.6947664212477345e-08,0.5
Iz,0,0,120,-6.110521884929464e-07,0.5
O2,0,0,121,1.130464474092778e-06,0.505
PO4,0,0,121,7.629955723361264e-07,0.505
P4,0,0,121,1.2424210156930206e-06,0.505
P6,0,0,121,1.6574392101011128e-06,0.505
P2,0,0,121,8.955196102007228e-07,0.505
P1,0,0,121,7.122417760390986e-07,0.505
P3,0,0,121,6.527956365902955e-07,0.505
P5,0,0,121,6.15998346044275e-07,0.505
PO3,0,0,121,4.5521248479126077e-07,0.505
O1,0,0,121,5.193015380142845e-07,0.505
Pz,0,0,121,7.904929100929525e-07,0.505
POz,0,0,121,3.9917222270982945e-07,0.505
Oz,0,0,121,-4.040993873867702e-09,0.505
Iz,0,0,121,-7.315893152922148e-07,0.505
O2,0,0,122,1.3728842425773597e-06,0.51
PO4,0,0,122,7.804955495632918e-07,0.51
P4,0,0,122,1.09146891543659e-06,0.51
P6,0,0,122,1.4659844244542475e-06,0.51
P2,0,0,122,8.11598401866322e-07,0.51
P1,0,0,122,5.345788224342281e-07,0.51
P3,0,0,122,5.781868510844899e-07,0.51
P5,0,0,122,8.362120978315882e-07,0.51
PO3,0,0,122,7.279964656476457e-07,0.51
O1,0,0,122,8.748966274938055e-07,0.51
Pz,0,0,122,6.382438315338942e-07,0.51
POz,0,0,122,1.5511824985735698e-07,0.51
Oz,0,0,122,2.574038419479384e-07,0.51
Iz,0,0,122,-8.816519708682581e-08,0.51
O2,0,0,123,1.5042569129553832e-06,0.515
PO4,0,0,123,9.572342250069062e-07,0.515
P4,0,0,123,1.4115579647509425e-06,0.515
P6,0,0,123,1.7840033919165645e-06,0.515
P2,0,0,123,8.35265542527338e-07,0.515
P1,0,0,123,7.78202249844204e-07,0.515
P3,0,0,123,8.807125848738399e-07,0.515
P5,0,0,123,1.0831984312258145e-06,0.515
PO3,0,0,123,7.43500762155069e-07,0.515
O1,0,0,123,8.698386140858257e-07,0.515
Pz,0,0,123,7.766600433080965e-07,0.515
POz,0,0,123,1.2314368169895924e-07,0.515
Oz,0,0,123,2.4441128835105584e-07,0.515
Iz,0,0,123,1.0923719938809413e-07,0.515
O2,0,0,124,1.6038394986783907e-06,0.52
PO4,0,0,124,9.754638980106056e-07,0.52
P4,0,0,124,1.2667738789840623e-06,0.52
P6,0,0,124,1.5993110985264688e-06,0.52
P2,0,0,124,6.658591031524951e-07,0.52
P1,0,0,124,8.511932583852942e-07,0.52
P3,0,0,124,1.1872218579052125e-06,0.52
P5,0,0,124,1.516570448387785e-06,0.52
PO3,0,0,124,9.634486368575336e-07,0.52
O1,0,0,124,1.1335580618618713e-06,0.52
Pz,0,0,124,7.250866288356073e-07,0.52
POz,0,0,124,1.1508694967837194e-07,0.52
Oz,0,0,124,5.898980900807792e-07,0.52
Iz,0,0,124,3.3795449243545516e-07,0.52
O2,0,0,125,1.4292662187538958e-06,0.525
PO4,0,0,125,7.278606790240622e-07,0.525
P4,0,0,125,1.053174843029646e-06,0.525
P6,0,0,125,1.3911563104472222e-06,0.525
P2,0,0,125,5.298795587357169e-07,0.525
P1,0,0,125,8.853351233651831e-07,0.525
P3,0,0,125,1.487365732516102e-06,0.525
P5,0,0,125,2.07285740984778e-06,0.525
PO3,0,0,125,1.2744110061090527e-06,0.525
O1,0,0,125,1.6914711516655835e-06,0.525
Pz,0,0,125,6.464626880719579e-07,0.525
POz,0,0,125,7.95281643593179e-08,0.525
Oz,0,0,125,7.122140769969006e-07,0.525
Iz,0,0,125,5.524291222449844e-07,0.525
O2,0,0,126,7.415328400364411e-07,0.53
PO4,0,0,126,2.965659799321483e-07,0.53
P4,0,0,126,6.506448826954582e-07,0.53
P6,0,0,126,1.0131023210946063e-06,0.53
P2,0,0,126,1.1156710116150098e-07,0.53
P1,0,0,126,4.9130780977057e-07,0.53
P3,0,0,126,1.0289871629874274e-06,0.53
P5,0,0,126,1.5165839305606693e-06,0.53
PO3,0,0,126,4.929053898040463e-07,0.53
O1,0,0,126,7.533606825192581e-07,0.53
Pz,0,0,126,2.4679037926741836e-07,0.53
POz,0,0,126,-4.613228595118842e-07,0.53
Oz,0,0,126,3.2692110428129495e-09,0.53
Iz,0,0,126,5.7203585443712555e-08,0.53
O2,0,0,127,1.311836106800978e-06,0.535
PO4,0,0,127,6.804741068737682e-07,0.535
P4,0,0,127,8.678438442506302e-07,0.535
P6,0,0,127,1.2152384543609377e-06,0.535
P2,0,0,127,2.668402167731805e-07,0.535
P1,0,0,127,9.130589061483827e-07,0.535
P3,0,0,127,1.4156474897208175e-06,0.535
P5,0,0,127,2.359043862784963e-06,0.535
PO3,0,0,127,1.2471970007424502e-06,0.535
O1,0,0,127,1.460134871100291e-06,0.535
Pz,0,0,127,7.480147176008354e-07,0.535
POz,0,0,127,2.248556958863255e-07,0.535
Oz,0,0,127,7.891571601055684e-07,0.535
Iz,0,0,127,4.5482881370421926e-07,0.535
O2,0,0,128,1.062067942989565e-06,0.54
PO4,0,0,128,4.847364579935939e-07,0.54
P4,0,0,128,5.534772223978036e-07,0.54
P6,0,0,128,7.678541997190211e-07,0.54
P2,0,0,128,1.5808602764207596e-07,0.54
P1,0,0,128,1.0314926100395932e-06,0.54
P3,0,0,128,1.3689908052133195e-06,0.54
P5,0,0,128,2.1848902104147424e-06,0.54
PO3,0,0,128,1.330156566035428e-06,0.54
O1,0,0,128,1.4718066192280547e-06,0.54
Pz,0,0,128,7.173424048046068e-07,0.54
POz,0,0,128,2.773192997420205e-07,0.54
Oz,0,0,128,9.592157933787955e-07,0.54
Iz,0,0,128,7.481694598762442e-07,0.54
O2,0,0,129,1.0028790255215961e-06,0.545
PO4,0,0,129,5.755636708127538e-07,0.545
P4,0,0,129,6.887330876291418e-07,0.545
P6,0,0,129,1.1857609535440853e-06,0.545
P2,0,0,129,3.072552418829094e-07,0.545
P1,0,0,129,1.0054855197050285e-06,0.545
P3,0,0,129,1.2364842161966777e-06,0.545
P5,0,0,129,1.7295145508279103e-06,0.545
PO3,0,0,129,9.590932098906853e-07,0.545
O1,0,0,129,9.256085408113403e-07,0.545
Pz,0,0,129,7.855639910500316e-07,0.545
POz,0,0,129,5.788277367379226e-08,0.545
Oz,0,0,129,7.058273743523027e-07,0.545
Iz,0,0,129,8.579818941924877e-07,0.545
O2,0,0,130,1.3065129529375743e-06,0.55
PO4,0,0,130,8.750742397503508e-07,0.55
P4,0,0,130,8.261191653328041e-07,0.55
P6,0,0,130,1.0354996394189132e-06,0.55
P2,0,0,130,8.079287501941754e-07,0.55
P1,0,0,130,1.3987172693180968e-06,0.55
P3,0,0,130,1.3482258745977318e-06,0.55
P5,0,0,130,1.8305676888541008e-06,0.55
PO3,0,0,130,1.1868209674578488e-06,0.55
O1,0,0,130,1.0755769607823884e-06,0.55
Pz,0,0,130,1.1706052395628508e-06,0.55
POz,0,0,130,5.291296099975505e-07,0.55
Oz,0,0,130,9.245402793673327e-07,0.55
Iz,0,0,130,7.943769648744207e-07,0.55
O2,0,0,131,1.0843685168397693e-06,0.555
PO4,0,0,131,7.980841443352238e-07,0.555
P4,0,0,131,8.08592011372754e-07,0.555
P6,0,0,131,7.190441354758697e-07,0.555
P2,0,0,131,8.149380459557392e-07,0.555
P1,0,0,131,1.5598494632028206e-06,0.555
P3,0,0,131,1.4758418960698464e-06,0.555
P5,0,0,131,1.7592542703776528e-06,0.555
PO3,0,0,131,9.731934352172028e-07,0.555
O1,0,0,131,8.4724638670023e-07,0.555
Pz,0,0,131,1.274594171509891e-06,0.555
POz,0,0,131,5.907860933454008e-07,0.555
Oz,0,0,131,8.229116756415352e-07,0.555
Iz,0,0,131,3.1739527285943793e-07,0.555
O2,0,0,132,4.7022321650376274e-07,0.56
PO4,0,0,132,3.8567764054563614e-07,0.56
P4,0,0,132,5.328173386920331e-07,0.56
P6,0,0,132,4.2333085609336574e-07,0.56
P2,0,0,132,5.225779875082765e-07,0.56
P1,0,0,132,1.216818403051045e-06,0.56
P3,0,0,132,1.2599258319419114e-06,0.56
P5,0,0,132,1.5859024536093043e-06,0.56
PO3,0,0,132,7.09565544471269e-07,0.56
O1,0,0,132,6.959398145511967e-07,0.56
Pz,0,0,132,1.0314096224551317e-06,0.56
POz,0,0,132,3.7309899706936796e-07,0.56
Oz,0,0,132,4.1272967044551803e-07,0.56
Iz,0,0,132,1.7435626894035218e-07,0.56
O2,0,0,133,5.91388671437019e-07,0.5650000000000001
PO4,0,0,133,6.661566814256263e-07,0.5650000000000001
P4,0,0,133,6.733720789609212e-07,0.5650000000000001
P6,0,0,133,6.028569095236449e-07,0.5650000000000001
P2,0,0,133,9.152340144055399e-07,0.5650000000000001
P1,0,0,133,1.3947755058633251e-06,0.5650000000000001
P3,0,0,133,1.0988221775497219e-06,0.5650000000000001
P5,0,0,133,1.3614784675622394e-06,0.5650000000000001
PO3,0,0,133,5.837567540477982e-07,0.5650000000000001
O1,0,0,133,4.279286551333466e-07,0.5650000000000001
Pz,0,0,133,1.3819589145597042e-06,0.5650000000000001
POz,0,0,133,4.943188508384748e-07,0.5650000000000001
Oz,0,0,133,2.8371870705676886e-07,0.5650000000000001
Iz,0,0,133,-1.7788323710275785e-07,0.5650000000000001
O2,0,0,134,8.826607192552506e-07,0.5700000000000001
PO4,0,0,134,7.725491731107969e-07,0.5700000000000001
P4,0,0,134,8.716946385806844e-07,0.5700000000000001
P6,0,0,134,5.314842741662083e-07,0.5700000000000001
P2,0,0,134,1.0399303008147428e-06,0.5700000000000001
P1,0,0,134,1.506004373190624e-06,0.5700000000000001
P3,0,0,134,1.010561961606413e-06,0.5700000000000001
P5,0,0,134,1.2074372322944801e-06,0.5700000000000001
PO3,0,0,134,7.754467117466388e-07,0.5700000000000001
O1,0,0,134,7.450771667612362e-07,0.5700000000000001
Pz,0,0,134,1.5475011520105879e-06,0.5700000000000001
POz,0,0,134,8.32409800711842e-07,0.5700000000000001
Oz,0,0,134,4.969441663600205e-07,0.5700000000000001
Iz,0,0,134,-2.5202292172010354e-07,0.5700000000000001
O2,0,0,135,5.504973262008316e-07,0.5750000000000001
PO4,0,0,135,4.5955592575694317e-07,0.5750000000000001
P4,0,0,135,8.21998848782557e-07,0.5750000000000001
P6,0,0,135,5.479747560916556e-07,0.5750000000000001
P2,0,0,135,9.958568313119375e-07,0.5750000000000001
P1,0,0,135,1.175053198184241e-06,0.5750000000000001
P3,0,0,135,6.208949203051701e-07,0.5750000000000001
P5,0,0,135,4.204971173951473e-07,0.5750000000000001
PO3,0,0,135,3.928748657253722e-07,0.5750000000000001
O1,0,0,135,4.828741000081446e-07,0.5750000000000001
Pz,0,0,135,1.4053576196205035e-06,0.5750000000000001
POz,0,0,135,2.7967270626474167e-07,0.5750000000000001
Oz,0,0,135,2.8622345308121316e-07,0.5750000000000001
Iz,0,0,135,-4.0627516725809486e-08,0.5750000000000001
O2,0,0,136,8.781581600958778e-08,0.5800000000000001
PO4,0,0,136,2.7206446519354556e-07,0.5800000000000001
P4,0,0,136,7.924811367469251e-07,0.5800000000000001
P6,0,0,136,4.5298199500488643e-07,0.5800000000000001
P2,0,0,136,7.58503989982478e-07,0.5800000000000001
P1,0,0,136,1.1302730397297269e-06,0.5800000000000001
P3,0,0,136,5.528770288388262e-07,0.5800000000000001
P5,0,0,136,4.959035322032629e-07,0.5800000000000001
PO3,0,0,136,8.320820085061693e-09,0.5800000000000001
O1,0,0,136,-2.716597548311982e-07,0.5800000000000001
Pz,0,0,136,1.370638570130392e-06,0.5800000000000001
POz,0,0,136,1.232486537490666e-07,0.5800000000000001
Oz,0,0,136,-2.1642168378589304e-07,0.5800000000000001
Iz,0,0,136,-7.097177634331387e-07,0.5800000000000001
O2,0,0,137,7.98814781021185e-07,0.5850000000000001
PO4,0,0,137,7.721300160406039e-07,0.5850000000000001
P4,0,0,137,1.0518263298932843e-06,0.5850000000000001
P6,0,0,137,6.847827485143601e-07,0.5850000000000001
P2,0,0,137,1.1980339210148545e-06,0.5850000000000001
P1,0,0,137,1.4031020920986064e-06,0.5850000000000001
P3,0,0,137,8.703244351387507e-07,0.5850000000000001
P5,0,0,137,8.29362354768247e-07,0.5850000000000001
PO3,0,0,137,5.529598196550406e-07,0.5850000000000001
O1,0,0,137,5.07813863765714e-07,0.5850000000000001
Pz,0,0,137,1.5323535675009956e-06,0.5850000000000001
POz,0,0,137,6.851857568702716e-07,0.5850000000000001
Oz,0,0,137,4.780715057679093e-07,0.5850000000000001
Iz,0,0,137,-1.199909626120783e-07,0.5850000000000001
O2,0,0,138,4.716480023464776e-07,0.5900000000000001
PO4,0,0,138,1.7348463270428064e-07,0.5900000000000001
P4,0,0,138,6.469122381225344e-07,0.5900000000000001
P6,0,0,138,4.129208439917731e-07,0.5900000000000001
P2,0,0,138,7.668748071272139e-07,0.5900000000000001
P1,0,0,138,1.0610618016750862e-06,0.5900000000000001
P3,0,0,138,7.191281220046588e-07,0.5900000000000001
P5,0,0,138,7.91970067862416e-07,0.5900000000000001
PO3,0,0,138,4.0047375296092456e-07,0.5900000000000001
O1,0,0,138,6.210557092488008e-07,0.5900000000000001
Pz,0,0,138,9.447712598004694e-07,0.5900000000000001
POz,0,0,138,2.135676694856414e-07,0.5900000000000001
Oz,0,0,138,2.1916053560440125e-07,0.5900000000000001
Iz,0,0,138,-2.5590671487738474e-07,0.5900000000000001
O2,0,0,139,2.8210202502532163e-07,0.5950000000000001
PO4,0,0,139,9.087835522614747e-08,0.5950000000000001
P4,0,0,139,3.773660374577062e-07,0.5950000000000001
P6,0,0,139,4.1289468731428855e-07,0.5950000000000001
P2,0,0,139,4.475486707005791e-07,0.5950000000000001
P1,0,0,139,6.229617213191649e-07,0.5950000000000001
P3,0,0,139,5.190963758895356e-07,0.5950000000000001
P5,0,0,139,8.39745586420659e-07,0.5950000000000001
PO3,0,0,139,-1.5608945397600392e-07,0.5950000000000001
O1,0,0,139,4.00922708948611e-07,0.5950000000000001
Pz,0,0,139,5.612474251009246e-07,0.5950000000000001
POz,0,0,139,-4.0374869364551107e-07,0.5950000000000001
Oz,0,0,139,-1.2546341930667556e-07,0.5950000000000001
Iz,0,0,139,-2.517677479947814e-07,0.5950000000000001
O2,0,0,140,6.784140902778943e-07,0.6000000000000001
PO4,0,0,140,1.8044880621242312e-07,0.6000000000000001
P4,0,0,140,3.743264231980838e-07,0.6000000000000001
P6,0,0,140,5.575201347108668e-07,0.6000000000000001
P2,0,0,140,4.634400501985213e-07,0.6000000000000001
P1,0,0,140,8.304012480076041e-07,0.6000000000000001
P3,0,0,140,5.854290819263246e-07,0.6000000000000001
P5,0,0,140,5.692890168237892e-07,0.6000000000000001
PO3,0,0,140,6.966842043540327e-08,0.6000000000000001
O1,0,0,140,7.005257724538914e-07,0.6000000000000001
Pz,0,0,140,6.331379405231111e-07,0.6000000000000001
POz,0,0,140,-1.6104030835989074e-07,0.6000000000000001
Oz,0,0,140,-1.3057233992690738e-07,0.6000000000000001
Iz,0,0,140,-4.432046086541449e-08,0.6000000000000001
O2,0,0,141,1.0714638979376687e-06,0.605
PO4,0,0,141,1.6688940465165097e-07,0.605
P4,0,0,141,2.40030357415067e-07,0.605
P6,0,0,141,4.357977458718395e-07,0.605
P2,0,0,141,2.315241003890103e-07,0.605
P1,0,0,141,8.897105754751479e-07,0.605
P3,0,0,141,9.016568498895139e-07,0.605
P5,0,0,141,1.0863497015661982e-06,0.605
PO3,0,0,141,5.42651813550033e-07,0.605
O1,0,0,141,1.503284074357159e-06,0.605
Pz,0,0,141,6.949254321331896e-07,0.605
POz,0,0,141,6.566279683608221e-08,0.605
Oz,0,0,141,3.1338645551597847e-07,0.605
Iz,0,0,141,4.926476877511111e-07,0.605
O2,0,0,142,9.436247482088471e-07,0.61
PO4,0,0,142,-1.3705348590765215e-07,0.61
P4,0,0,142,2.8684068546387785e-07,0.61
P6,0,0,142,3.805001618745928e-07,0.61
P2,0,0,142,1.4968030285373836e-07,0.61
P1,0,0,142,6.336986678584316e-07,0.61
P3,0,0,142,7.09503976105638e-07,0.61
P5,0,0,142,1.2469252314693094e-06,0.61
PO3,0,0,142,3.7812267607136953e-07,0.61
O1,0,0,142,1.1169824124924785e-06,0.61
Pz,0,0,142,4.1881429467643235e-07,0.61
POz,0,0,142,-2.1490930395573033e-07,0.61
Oz,0,0,142,2.867866692739718e-07,0.61
Iz,0,0,142,7.084736969378529e-07,0.61
O2,0,0,143,9.979239549671641e-07,0.615
PO4,0,0,143,6.363267983911928e-08,0.615
P4,0,0,143,3.7112726790312606e-07,0.615
P6,0,0,143,3.3423300712970843e-07,0.615
P2,0,0,143,4.328315859496617e-07,0.615
P1,0,0,143,7.05569303581182e-07,0.615
P3,0,0,143,9.757594861632894e-07,0.615
P5,0,0,143,1.4316192231187353e-06,0.615
PO3,0,0,143,6.346549334507498e-07,0.615
O1,0,0,143,1.3737114145578197e-06,0.615
Pz,0,0,143,5.271055795183267e-07,0.615
POz,0,0,143,-1.314461079715498e-07,0.615
Oz,0,0,143,2.987442333571085e-07,0.615
Iz,0,0,143,2.3277693767561982e-07,0.615
O2,0,0,144,1.057013242312631e-06,0.62
PO4,0,0,144,2.930721767568806e-08,0.62
P4,0,0,144,3.278914368532863e-07,0.62
P6,0,0,144,3.452679174783398e-07,0.62
P2,0,0,144,3.181294605630669e-07,0.62
P1,0,0,144,8.038183730252849e-07,0.62
P3,0,0,144,8.646800974831714e-07,0.62
P5,0,0,144,1.1887133561749086e-06,0.62
PO3,0,0,144,7.550652028789225e-07,0.62
O1,0,0,144,1.6761620986285453e-06,0.62
Pz,0,0,144,4.4032054866790453e-07,0.62
POz,0,0,144,-6.639020459646228e-08,0.62
Oz,0,0,144,6.416220596171021e-07,0.62
Iz,0,0,144,8.206644482525027e-07,0.62
O2,0,0,145,9.671980238122446e-07,0.625
PO4,0,0,145,-2.670072165250627e-07,0.625
P4,0,0,145,-1.7440559442340386e-07,0.625
P6,0,0,145,-1.7282175092437468e-07,0.625
P2,0,0,145,1.1333748258649574e-08,0.625
P1,0,0,145,4.5066874528912797e-07,0.625
P3,0,0,145,7.783178463144887e-07,0.625
P5,0,0,145,1.3723834884060968e-06,0.625
PO3,0,0,145,6.672235335544956e-07,0.625
O1,0,0,145,1.6682787740915624e-06,0.625
Pz,0,0,145,-1.3803367753700902e-08,0.625
POz,0,0,145,-3.258272103513164e-07,0.625
Oz,0,0,145,5.713331716034246e-07,0.625
Iz,0,0,145,1.2597484338951497e-06,0.625
O2,0,0,146,7.056216228540009e-07,0.63
PO4,0,0,146,-3.923309282138842e-07,0.63
P4,0,0,146,-3.0118455920330415e-08,0.63
P6,0,0,146,-7.257890938147684e-08,0.63
P2,0,0,146,1.3866847190099635e-07,0.63
P1,0,0,146,6.809844320749009e-07,0.63
P3,0,0,146,1.0518844751008909e-06,0.63
P5,0,0,146,1.4149984988015865e-06,0.63
PO3,0,0,146,5.040880101135772e-07,0.63
O1,0,0,146,1.2061339127691724e-06,0.63
Pz,0,0,146,1.8892296728683444e-07,0.63
POz,0,0,146,-1.2983772684116045e-07,0.63
Oz,0,0,146,2.6526346213454646e-07,0.63
Iz,0,0,146,6.103407470731948e-07,0.63
O2,0,0,147,1.3026183122164914e-06,0.635
PO4,0,0,147,2.3462987361586563e-07,0.635
P4,0,0,147,2.137921473923817e-07,0.635
P6,0,0,147,2.461350379262468e-07,0.635
P2,0,0,147,3.212754335614914e-07,0.635
P1,0,0,147,1.0711523144842435e-06,0.635
P3,0,0,147,1.1532396850612465e-06,0.635
P5,0,0,147,1.63449172538316e-06,0.635
PO3,0,0,147,1.166228216686918e-06,0.635
O1,0,0,147,1.8113198866553331e-06,0.635
Pz,0,0,147,5.160322332053561e-07,0.635
POz,0,0,147,4.283333462710701e-07,0.635
Oz,0,0,147,1.1033060411232883e-06,0.635
Iz,0,0,147,1.1169030437929344e-06,0.635
O2,0,0,148,1.3541053386825681e-06,0.64
PO4,0,0,148,4.2231635970490507e-07,0.64
P4,0,0,148,4.848144080232482e-07,0.64
P6,0,0,148,3.6110947038427356e-07,0.64
P2,0,0,148,4.830440080137968e-07,0.64
P1,0,0,148,1.1825919456284561e-06,0.64
P3,0,0,148,1.0370063873171069e-06,0.64
P5,0,0,148,1.6677133806480532e-06,0.64
PO3,0,0,148,1.1495857381577613e-06,0.64
O1,0,0,148,1.5587623326987486e-06,0.64
Pz,0,0,148,7.565191489115124e-07,0.64
POz,0,0,148,4.998877613574493e-07,0.64
Oz,0,0,148,9.775204994622895e-07,0.64
Iz,0,0,148,9.974104526155018e-07,0.64
O2,0,0,149,7.822958436704688e-07,0.645
PO4,0,0,149,3.859801338712567e-07,0.645
P4,0,0,149,4.6620888597627506e-07,0.645
P6,0,0,149,1.338597081858538e-07,0.645
P2,0,0,149,7.094380455552519e-07,0.645
P1,0,0,149,1.248467485717218e-06,0.645
P3,0,0,149,8.139666216015922e-07,0.645
P5,0,0,149,1.0918282026286315e-06,0.645
PO3,0,0,149,8.285707672160918e-07,0.645
O1,0,0,149,9.122807245500033e-07,0.645
Pz,0,0,149,1.0787613188312405e-06,0.645
POz,0,0,149,5.526495516080165e-07,0.645
Oz,0,0,149,6.111169710842278e-07,0.645
Iz,0,0,149,1.2713033333229173e-07,0.645
O2,0,0,150,9.726783891263143e-07,0.65
PO4,0,0,150,5.213963431882002e-07,0.65
P4,0,0,150,6.92907787313464e-07,0.65
P6,0,0,150,1.5342643836458396e-07,0.65
P2,0,0,150,8.59110815719847e-07,0.65
P1,0,0,150,1.5227556322882185e-06,0.65
P3,0,0,150,8.640180051651858e-07,0.65
P5,0,0,150,1.147429915444165e-06,0.65
PO3,0,0,150,1.0618114101973695e-06,0.65
O1,0,0,150,8.053032919815656e-07,0.65
Pz,0,0,150,1.2411227892689084e-06,0.65
POz,0,0,150,1.0079841627178476e-06,0.65
Oz,0,0,150,7.66129157813568e-07,0.65
Iz,0,0,150,-1.0416733399947396e-07,0.65
O2,0,0,151,5.159541600006726e-07,0.655
PO4,0,0,151,3.132024234354186e-07,0.655
P4,0,0,151,4.3416175933913203e-07,0.655
P6,0,0,151,-7.065096621820418e-08,0.655
P2,0,0,151,7.402115330125591e-07,0.655
P1,0,0,151,1.534796084121661e-06,0.655
P3,0,0,151,7.078101188481726e-07,0.655
P5,0,0,151,6.102687537155214e-07,0.655
PO3,0,0,151,7.762794787742142e-07,0.655
O1,0,0,151,3.8521764180980963e-07,0.655
Pz,0,0,151,1.1615774232751809e-06,0.655
POz,0,0,151,7.378310953455492e-07,0.655
Oz,0,0,151,4.575862826276332e-07,0.655
Iz,0,0,151,-3.483536309428111e-08,0.655
O2,0,0,152,-3.497733586371672e-07,0.66
PO4,0,0,152,-1.9486724800956437e-07,0.66
P4,0,0,152,2.7711707088650256e-07,0.66
P6,0,0,152,-5.228939246578765e-07,0.66
P2,0,0,152,5.732415330053976e-07,0.66
P1,0,0,152,1.1484106923057807e-06,0.66
P3,0,0,152,1.9965335078758184e-07,0.66
P5,0,0,152,2.7619535577888283e-07,0.66
PO3,0,0,152,8.360251775021017e-08,0.66
O1,0,0,152,-5.022037543579199e-07,0.66
Pz,0,0,152,1.1064820494038853e-06,0.66
POz,0,0,152,1.9222036201342057e-07,0.66
Oz,0,0,152,-3.1569330213066267e-07,0.66
Iz,0,0,152,-1.0663482081928199e-06,0.66
O2,0,0,153,-2.319995688359726e-07,0.665
PO4,0,0,153,3.4346371283764095e-08,0.665
P4,0,0,153,5.578412673191235e-07,0.665
P6,0,0,153,-6.733592829298098e-07,0.665
P2,0,0,153,7.578520157518399e-07,0.665
P1,0,0,153,1.454788713244196e-06,0.665
P3,0,0,153,6.663384300636771e-07,0.665
P5,0,0,153,7.213865380965416e-07,0.665
PO3,0,0,153,2.5397529988655317e-07,0.665
O1,0,0,153,-2.1412588373913278e-07,0.665
Pz,0,0,153,1.1986328291107591e-06,0.665
POz,0,0,153,3.4527452189451725e-07,0.665
Oz,0,0,153,-1.8172291035045417e-07,0.665
Iz,0,0,153,-8.788931593535686e-07,0.665
O2,0,0,154,-3.507883622092716e-07,0.67
PO4,0,0,154,-7.988801290930183e-08,0.67
P4,0,0,154,5.260900762336541e-07,0.67
P6,0,0,154,-5.081178187223428e-07,0.67
P2,0,0,154,7.744626586739585e-07,0.67
P1,0,0,154,1.1968659922920157e-06,0.67
P3,0,0,154,2.914486271339103e-07,0.67
P5,0,0,154,2.1188173024754188e-07,0.67
PO3,0,0,154,1.094282370281627e-07,0.67
O1,0,0,154,-2.2365060001042263e-07,0.67
Pz,0,0,154,1.1043235805142673e-06,0.67
POz,0,0,154,2.8422885035700206e-07,0.67
Oz,0,0,154,-3.0541119827419964e-07,0.67
Iz,0,0,154,-9.6157989679317e-07,0.67
O2,0,0,155,-6.6918040352799e-07,0.675
PO4,0,0,155,-3.081145374174628e-07,0.675
P4,0,0,155,3.231614407165671e-07,0.675
P6,0,0,155,-7.472798021501659e-07,0.675
P2,0,0,155,6.674767962596646e-07,0.675
P1,0,0,155,9.494608932769799e-07,0.675
P3,0,0,155,1.9718886693757028e-07,0.675
P5,0,0,155,3.648142795865727e-07,0.675
PO3,0,0,155,-9.212514978820218e-08,0.675
O1,0,0,155,-2.9667341212795053e-07,0.675
Pz,0,0,155,1.004561629265548e-06,0.675
POz,0,0,155,-1.652577445283891e-07,0.675
Oz,0,0,155,-4.726032959318814e-07,0.675
Iz,0,0,155,-8.986513706026388e-07,0.675
O2,0,0,156,-6.851003603074403e-08,0.68
PO4,0,0,156,-5.056571166482771e-10,0.68
P4,0,0,156,4.4131402533455124e-07,0.68
P6,0,0,156,-3.64828367434327e-07,0.68
P2,0,0,156,8.80832443171055e-07,0.68
P1,0,0,156,1.0567823104428652e-06,0.68
P3,0,0,156,3.4512854882284475e-07,0.68
P5,0,0,156,4.4604414012504607e-07,0.68
PO3,0,0,156,1.2907167932742546e-07,0.68
O1,0,0,156,7.377699493655238e-08,0.68
Pz,0,0,156,1.0622128855302922e-06,0.68
POz,0,0,156,1.7160725359223985e-08,0.68
Oz,0,0,156,-1.2554223041040307e-07,0.68
Iz,0,0,156,-4.810766915385416e-07,0.68
O2,0,0,157,-7.493622564932605e-07,0.685
PO4,0,0,157,-5.620967930741496e-07,0.685
P4,0,0,157,6.430289413704305e-08,0.685
P6,0,0,157,-7.734468398824065e-07,0.685
P2,0,0,157,4.663393839418357e-07,0.685
P1,0,0,157,6.647383859243096e-07,0.685
P3,0,0,157,1.493656243850426e-07,0.685
P5,0,0,157,6.076141218891309e-08,0.685
PO3,0,0,157,-1.9473800553460402e-07,0.685
O1,0,0,157,-5.227088737623768e-07,0.685
Pz,0,0,157,7.459351151030088e-07,0.685
POz,0,0,157,-4.6257471343814705e-07,0.685
Oz,0,0,157,-9.416954417343631e-07,0.685
Iz,0,0,157,-1.499011832252181e-06,0.685
O2,0,0,158,-2.4729259519633305e-07,0.6900000000000001
PO4,0,0,158,-3.0119228615738967e-07,0.6900000000000001
P4,0,0,158,1.2536424467880894e-07,0.6900000000000001
P6,0,0,158,-5.277236571542836e-07,0.6900000000000001
P2,0,0,158,4.742023002370978e-07,0.6900000000000001
P1,0,0,158,5.50647905040732e-07,0.6900000000000001
P3,0,0,158,6.12638090901783e-08,0.6900000000000001
P5,0,0,158,1.9011931641475386e-07,0.6900000000000001
PO3,0,0,158,6.11741389120452e-08,0.6900000000000001
O1,0,0,158,-1.5916802405272922e-07,0.6900000000000001
Pz,0,0,158,6.646831404315057e-07,0.6900000000000001
POz,0,0,158,-3.742021111955796e-07,0.6900000000000001
Oz,0,0,158,-6.02631338989498e-07,0.6900000000000001
Iz,0,0,158,-9.15077232143121e-07,0.6900000000000001
O2,0,0,159,-4.975893946993481e-10,0.6950000000000001
PO4,0,0,159,-1.3789256689509917e-07,0.6950000000000001
P4,0,0,159,1.6613652368137143e-07,0.6950000000000001
P6,0,0,159,-2.296637692452191e-07,0.6950000000000001
P2,0,0,159,4.0794263765186064e-07,0.6950000000000001
P1,0,0,159,4.966498443971374e-07,0.6950000000000001
P3,0,0,159,1.6418928216393582e-07,0.6950000000000001
P5,0,0,159,2.3175124310562782e-07,0.6950000000000001
PO3,0,0,159,5.6617007097552436e-08,0.6950000000000001
O1,0,0,159,2.1644601853371368e-07,0.6950000000000001
Pz,0,0,159,6.32916490976922e-07,0.6950000000000001
POz,0,0,159,-2.585506574166408e-07,0.6950000000000001
Oz,0,0,159,-4.169055834025525e-07,0.6950000000000001
Iz,0,0,159,-5.257344371734358e-07,0.6950000000000001
O2,0,0,160,-2.8504467643696184e-07,0.7000000000000001
PO4,0,0,160,-4.0159061530467213e-07,0.7000000000000001
P4,0,0,160,-2.245730043633001e-07,0.7000000000000001
P6,0,0,160,-4.191621609590472e-07,0.7000000000000001
P2,0,0,160,-9.967309364590387e-09,0.7000000000000001
P1,0,0,160,1.460170201506075e-07,0.7000000000000001
P3,0,0,160,-1.8771122021944346e-07,0.7000000000000001
P5,0,0,160,-1.468920117830559e-07,0.7000000000000001
PO3,0,0,160,-2.634176603328398e-07,0.7000000000000001
O1,0,0,160,-7.228434153839506e-08,0.7000000000000001
Pz,0,0,160,2.0246500914379092e-07,0.7000000000000001
POz,0,0,160,-6.729672767873867e-07,0.7000000000000001
Oz,0,0,160,-7.21563614678976e-07,0.7000000000000001
Iz,0,0,160,-9.771718285468396e-07,0.7000000000000001
O2,0,1,0,4.785519145160124e-07,-0.1
PO4,0,1,0,7.82568237282195e-07,-0.1
P4,0,1,0,7.662426059677356e-07,-0.1
P6,0,1,0,2.4617447251333183e-07,-0.1
P2,0,1,0,1.1209126634784146e-06,-0.1
P1,0,1,0,9.079010587120061e-07,-0.1
P3,0,1,0,5.548015846756782e-07,-0.1
P5,0,1,0,4.4463061450965285e-09,-0.1
PO3,0,1,0,3.5267618240210457e-07,-0.1
O1,0,1,0,-4.3934620803512474e-08,-0.1
Pz,0,1,0,1.064688761323332e-06,-0.1
POz,0,1,0,6.7645499867639e-07,-0.1
Oz,0,1,0,4.127272995618312e-07,-0.1
Iz,0,1,0,2.827088634142742e-07,-0.1
O2,0,1,1,2.9541307831144694e-07,-0.095
PO4,0,1,1,5.902863785895155e-07,-0.095
P4,0,1,1,7.618261458748594e-07,-0.095
P6,0,1,1,3.8516376618577205e-07,-0.095
P2,0,1,1,8.71260779102909e-07,-0.095
P1,0,1,1,6.318748575844645e-07,-0.095
P3,0,1,1,1.4903104148601154e-07,-0.095
P5,0,1,1,-3.8418621985386554e-07,-0.095
PO3,0,1,1,3.160732340316459e-08,-0.095
O1,0,1,1,-3.10346244417864e-07,-0.095
Pz,0,1,1,8.668598998527942e-07,-0.095
POz,0,1,1,3.980033945413105e-07,-0.095
Oz,0,1,1,3.657711672933022e-07,-0.095
Iz,0,1,1,3.7450511276287227e-07,-0.095
O2,0,1,2,-1.4068845952727522e-07,-0.09000000000000001
PO4,0,1,2,3.103064662781345e-07,-0.09000000000000001
P4,0,1,2,6.635502686517368e-07,-0.09000000000000001
P6,0,1,2,6.049345166848795e-08,-0.09000000000000001
P2,0,1,2,7.134409131117486e-07,-0.09000000000000001
P1,0,1,2,4.6780450310933006e-07,-0.09000000000000001
P3,0,1,2,2.468149155160875e-07,-0.09000000000000001
P5,0,1,2,-4.36934360633779e-07,-0.09000000000000001
PO3,0,1,2,-7.70659257904908e-08,-0.09000000000000001
O1,0,1,2,-6.166365591635678e-07,-0.09000000000000001
Pz,0,1,2,6.272025189951276e-07,-0.09000000000000001
POz,0,1,2,2.1892167023722545e-07,-0.09000000000000001
Oz,0,1,2,-9.318596940648537e-08,-0.09000000000000001
Iz,0,1,2,5.6629224118080485e-08,-0.09000000000000001
O2,0,1,3,-4.5082502963244164e-07,-0.085
PO4,0,1,3,5.8358503170731796e-08,-0.085
P4,0,1,3,4.6706715523621e-07,-0.085
P6,0,1,3,-8.59055732345593e-08,-0.085
P2,0,1,3,4.462437668070668e-07,-0.085
P1,0,1,3,3.947266863054472e-07,-0.085
P3,0,1,3,3.468955041429692e-08,-0.085
P5,0,1,3,-5.065185607378756e-07,-0.085
PO3,0,1,3,-2.2881931983292527e-07,-0.085
O1,0,1,3,-8.023869216463341e-07,-0.085
Pz,0,1,3,4.2041465165147107e-07,-0.085
POz,0,1,3,-1.472647262196986e-07,-0.085
Oz,0,1,3,-2.2946130623596894e-07,-0.085
Iz,0,1,3,-1.5918206544476546e-07,-0.085
O2,0,1,4,-1.8503411900957914e-09,-0.08
PO4,0,1,4,4.0164076462363294e-07,-0.08
P4,0,1,4,7.356590498107885e-07,-0.08
P6,0,1,4,1.684571159937504e-07,-0.08
P2,0,1,4,6.987849774934932e-07,-0.08
P1,0,1,4,5.592953740550228e-07,-0.08
P3,0,1,4,1.1349979357448525e-07,-0.08
P5,0,1,4,-2.3270106357007737e-07,-0.08
PO3,0,1,4,-7.080449875907969e-08,-0.08
O1,0,1,4,-5.484336149190023e-07,-0.08
Pz,0,1,4,6.986865157881197e-07,-0.08
POz,0,1,4,1.386419203075646e-07,-0.08
Oz,0,1,4,7.30727445139531e-08,-0.08
Iz,0,1,4,1.6762726349761782e-07,-0.08
O2,0,1,5,-6.164153030984596e-07,-0.07500000000000001
PO4,0,1,5,-2.622994947231459e-07,-0.07500000000000001
P4,0,1,5,2.8886023777603546e-07,-0.07500000000000001
P6,0,1,5,-8.402458771231032e-08,-0.07500000000000001
P2,0,1,5,2.386402023678889e-07,-0.07500000000000001
P1,0,1,5,3.0321254665168174e-07,-0.07500000000000001
P3,0,1,5,8.333737317699067e-08,-0.07500000000000001
P5,0,1,5,5.30515873976232e-08,-0.07500000000000001
PO3,0,1,5,-2.2839660598544769e-07,-0.07500000000000001
O1,0,1,5,-6.135756946655086e-07,-0.07500000000000001
Pz,0,1,5,4.3777628733747187e-07,-0.07500000000000001
POz,0,1,5,-2.3259389890441313e-07,-0.07500000000000001
Oz,0,1,5,-1.8518302063965092e-07,-0.07500000000000001
Iz,0,1,5,-3.8737933041755693e-07,-0.07500000000000001
O2,0,1,6,-4.4215428138934725e-08,-0.07
PO4,0,1,6,-1.0225812160974906e-08,-0.07
P4,0,1,6,4.4464140158909266e-07,-0.07
P6,0,1,6,2.3347609282559715e-07,-0.07
P2,0,1,6,4.858177005406272e-07,-0.07
P1,0,1,6,2.2104753640056277e-07,-0.07
P3,0,1,6,-1.9969643474502226e-07,-0.07
P5,0,1,6,-4.014481266670655e-07,-0.07
PO3,0,1,6,-1.0934958787938556e-07,-0.07
O1,0,1,6,-3.063532029887793e-07,-0.07
Pz,0,1,6,4.819896729299134e-07,-0.07
POz,0,1,6,-8.83119216490393e-08,-0.07
Oz,0,1,6,1.5249465205457565e-07,-0.07
Iz,0,1,6,4.873668483326235e-07,-0.07
O2,0,1,7,2.3385766229049934e-07,-0.065
PO4,0,1,7,1.284956916820552e-07,-0.065
P4,0,1,7,5.036279566806888e-07,-0.065
P6,0,1,7,1.9809860361885817e-07,-0.065
P2,0,1,7,5.027113946460217e-07,-0.065
P1,0,1,7,3.7985069628418515e-07,-0.065
P3,0,1,7,1.7939411376584234e-07,-0.065
P5,0,1,7,7.878152438023661e-08,-0.065
PO3,0,1,7,2.3207440738665435e-07,-0.065
O1,0,1,7,6.197107671813526e-08,-0.065
Pz,0,1,7,5.867715303387055e-07,-0.065
POz,0,1,7,1.1489833971613319e-07,-0.065
Oz,0,1,7,5.834677343048225e-07,-0.065
Iz,0,1,7,1.0882513159031859e-06,-0.065
O2,0,1,8,3.3936239425977166e-07,-0.060000000000000005
PO4,0,1,8,1.1066675268134185e-07,-0.060000000000000005
P4,0,1,8,4.841670848840247e-07,-0.060000000000000005
P6,0,1,8,2.6363397705547305e-07,-0.060000000000000005
P2,0,1,8,4.6379132568194574e-07,-0.060000000000000005
P1,0,1,8,2.1984992162404203e-07,-0.060000000000000005
P3,0,1,8,2.4913173362231897e-07,-0.060000000000000005
P5,0,1,8,2.888730605549924e-07,-0.060000000000000005
PO3,0,1,8,1.9012126044636262e-07,-0.060000000000000005
O1,0,1,8,-1.116167904692652e-07,-0.060000000000000005
Pz,0,1,8,2.9497820395426393e-07,-0.060000000000000005
POz,0,1,8,5.045372970867789e-08,-0.060000000000000005
Oz,0,1,8,5.828941777372741e-07,-0.060000000000000005
Iz,0,1,8,8.679363244263234e-07,-0.060000000000000005
O2,0,1,9,1.3720003193927787e-07,-0.05500000000000001
PO4,0,1,9,8.60552693531094e-08,-0.05500000000000001
P4,0,1,9,2.7095697128880193e-07,-0.05500000000000001
P6,0,1,9,1.969403546072206e-07,-0.05500000000000001
P2,0,1,9,1.1305668432507928e-07,-0.05500000000000001
P1,0,1,9,1.2955620764810245e-07,-0.05500000000000001
P3,0,1,9,3.4400495112549023e-07,-0.05500000000000001
P5,0,1,9,1.8867252476623085e-07,-0.05500000000000001
PO3,0,1,9,6.603281797446665e-08,-0.05500000000000001
O1,0,1,9,-2.4039347290694686e-07,-0.05500000000000001
Pz,0,1,9,4.9344656756171543e-08,-0.05500000000000001
POz,0,1,9,-9.226372482881732e-08,-0.05500000000000001
Oz,0,1,9,4.12618764438684e-07,-0.05500000000000001
Iz,0,1,9,8.041427666855089e-07,-0.05500000000000001
O2,0,1,10,1.067439993748933e-07,-0.05
PO4,0,1,10,-1.4188612201176404e-08,-0.05
P4,0,1,10,3.8961108226744765e-07,-0.05
P6,0,1,10,2.4732725116700135e-07,-0.05
P2,0,1,10,1.0784805708245894e-07,-0.05
P1,0,1,10,6.51810643339673e-08,-0.05
P3,0,1,10,3.6294762319674655e-07,-0.05
P5,0,1,10,2.3398211119644255e-07,-0.05
PO3,0,1,10,1.310290924491984e-07,-0.05
O1,0,1,10,-1.390848826057199e-07,-0.05
Pz,0,1,10,3.5029392532201774e-08,-0.05
POz,0,1,10,-1.2919131691039865e-07,-0.05
Oz,0,1,10,4.191375018845661e-07,-0.05
Iz,0,1,10,8.176547701620166e-07,-0.05
O2,0,1,11,-1.0517962901665645e-07,-0.045000000000000005
PO4,0,1,11,-1.3507478918092196e-07,-0.045000000000000005
P4,0,1,11,2.353647170473106e-07,-0.045000000000000005
P6,0,1,11,-2.0517617537828168e-08,-0.045000000000000005
P2,0,1,11,1.728782790998793e-07,-0.045000000000000005
P1,0,1,11,-1.4943828985353635e-08,-0.045000000000000005
P3,0,1,11,2.445375046478192e-07,-0.045000000000000005
P5,0,1,11,-8.07657596543117e-08,-0.045000000000000005
PO3,0,1,11,-1.4521123407522422e-07,-0.045000000000000005
O1,0,1,11,-5.214278025373861e-07,-0.045000000000000005
Pz,0,1,11,1.1973330379959404e-07,-0.045000000000000005
POz,0,1,11,-2.645652530842513e-07,-0.045000000000000005
Oz,0,1,11,1.793087601885554e-07,-0.045000000000000005
Iz,0,1,11,4.896379116551979e-07,-0.045000000000000005
O2,0,1,12,-1.6275331153761175e-07,-0.04000000000000001
PO4,0,1,12,-1.5478471857334927e-07,-0.04000000000000001
P4,0,1,12,1.802525205485112e-07,-0.04000000000000001
P6,0,1,12,-2.3848710478323865e-07,-0.04000000000000001
P2,0,1,12,4.6953090680218007e-08,-0.04000000000000001
P1,0,1,12,5.0710585675832316e-08,-0.04000000000000001
P3,0,1,12,3.217793266785905e-07,-0.04000000000000001
P5,0,1,12,1.500518774731453e-07,-0.04000000000000001
PO3,0,1,12,1.243574773157615e-08,-0.04000000000000001
O1,0,1,12,-5.317654928246002e-08,-0.04000000000000001
Pz,0,1,12,1.9565534471220176e-07,-0.04000000000000001
POz,0,1,12,-3.035969145825101e-07,-0.04000000000000001
Oz,0,1,12,1.4835924796683785e-07,-0.04000000000000001
Iz,0,1,12,5.560944024021579e-07,-0.04000000000000001
O2,0,1,13,2.64287134598828e-07,-0.035
PO4,0,1,13,2.8045273037902274e-07,-0.035
P4,0,1,13,3.4027938574917033e-07,-0.035
P6,0,1,13,-1.7727858762789177e-08,-0.035
P2,0,1,13,4.5358846601479695e-07,-0.035
P1,0,1,13,5.37834728986822e-07,-0.035
P3,0,1,13,7.442551779736078e-07,-0.035
P5,0,1,13,4.1983961134203423e-07,-0.035
PO3,0,1,13,4.54197445415715e-07,-0.035
O1,0,1,13,9.236175793886841e-08,-0.035
Pz,0,1,13,6.236462083425437e-07,-0.035
POz,0,1,13,1.0871851364069248e-07,-0.035
Oz,0,1,13,4.257174869078315e-07,-0.035
Iz,0,1,13,8.4629544560739e-07,-0.035
O2,0,1,14,3.8820897577817335e-07,-0.03
PO4,0,1,14,4.062164749333206e-07,-0.03
P4,0,1,14,5.124509853448404e-07,-0.03
P6,0,1,14,2.3956153105751926e-07,-0.03
P2,0,1,14,6.075749899286197e-07,-0.03
P1,0,1,14,7.166171395367895e-07,-0.03
P3,0,1,14,7.957711144741885e-07,-0.03
P5,0,1,14,5.110464351797484e-07,-0.03
PO3,0,1,14,4.880986755247471e-07,-0.03
O1,0,1,14,2.5295264575803494e-07,-0.03
Pz,0,1,14,6.751796763174459e-07,-0.03
POz,0,1,14,2.598596193513361e-07,-0.03
Oz,0,1,14,5.003009990543882e-07,-0.03
Iz,0,1,14,8.115549995688304e-07,-0.03
O2,0,1,15,6.51883792367931e-07,-0.02500000000000001
PO4,0,1,15,3.668341823998184e-07,-0.02500000000000001
P4,0,1,15,4.881872057235921e-07,-0.02500000000000001
P6,0,1,15,1.0382091479726605e-07,-0.02500000000000001
P2,0,1,15,6.870617396901855e-07,-0.02500000000000001
P1,0,1,15,7.353444292764172e-07,-0.02500000000000001
P3,0,1,15,9.731191533972067e-07,-0.02500000000000001
P5,0,1,15,6.725038462330935e-07,-0.02500000000000001
PO3,0,1,15,8.629284010473834e-07,-0.02500000000000001
O1,0,1,15,5.420923944593654e-07,-0.02500000000000001
Pz,0,1,15,7.907345090146336e-07,-0.02500000000000001
POz,0,1,15,4.624729328204153e-07,-0.02500000000000001
Oz,0,1,15,8.604853222405933e-07,-0.02500000000000001
Iz,0,1,15,1.1655671714735106e-06,-0.02500000000000001
O2,0,1,16,1.6179502104219383e-07,-0.020000000000000004
PO4,0,1,16,1.543791562576892e-07,-0.020000000000000004
P4,0,1,16,1.9821114097226047e-07,-0.020000000000000004
P6,0,1,16,-7.187079203132434e-10,-0.020000000000000004
P2,0,1,16,7.75314896165448e-07,-0.020000000000000004
P1,0,1,16,7.722226084731173e-07,-0.020000000000000004
P3,0,1,16,9.632347767527147e-07,-0.020000000000000004
P5,0,1,16,7.56135119391924e-07,-0.020000000000000004
PO3,0,1,16,6.687393013021041e-07,-0.020000000000000004
O1,0,1,16,2.1035712632689025e-07,-0.020000000000000004
Pz,0,1,16,9.286069381841506e-07,-0.020000000000000004
POz,0,1,16,3.065040341654649e-07,-0.020000000000000004
Oz,0,1,16,4.89255256204388e-07,-0.020000000000000004
Iz,0,1,16,6.50404478464581e-07,-0.020000000000000004
O2,0,1,17,7.447536324878715e-08,-0.015
PO4,0,1,17,2.2863983111501546e-07,-0.015
P4,0,1,17,1.734614201840477e-07,-0.015
P6,0,1,17,-1.3991249347599477e-07,-0.015
P2,0,1,17,7.156684695732462e-07,-0.015
P1,0,1,17,8.116230900593621e-07,-0.015
P3,0,1,17,1.0559655377664312e-06,-0.015
P5,0,1,17,7.254717524564203e-07,-0.015
PO3,0,1,17,6.985291559008069e-07,-0.015
O1,0,1,17,2.5307173357288974e-07,-0.015
Pz,0,1,17,1.0783610335864286e-06,-0.015
POz,0,1,17,3.527542787038328e-07,-0.015
Oz,0,1,17,5.560255984076494e-07,-0.015
Iz,0,1,17,5.452605551197979e-07,-0.015
O2,0,1,18,5.165636519590041e-07,-0.010000000000000009
PO4,0,1,18,5.625235656950518e-07,-0.010000000000000009
P4,0,1,18,4.822039107141964e-07,-0.010000000000000009
P6,0,1,18,1.0112095825733123e-07,-0.010000000000000009
P2,0,1,18,6.581042730942642e-07,-0.010000000000000009
P1,0,1,18,7.543310340797577e-07,-0.010000000000000009
P3,0,1,18,7.359793792697208e-07,-0.010000000000000009
P5,0,1,18,2.2233417149931763e-07,-0.010000000000000009
PO3,0,1,18,5.640879286360957e-07,-0.010000000000000009
O1,0,1,18,2.820287655179625e-07,-0.010000000000000009
Pz,0,1,18,1.112303900466456e-06,-0.010000000000000009
POz,0,1,18,5.746083921674237e-07,-0.010000000000000009
Oz,0,1,18,7.425680315331111e-07,-0.010000000000000009
Iz,0,1,18,1.0398768617788102e-06,-0.010000000000000009
O2,0,1,19,3.2659456464039333e-07,-0.0050000000000000044
PO4,0,1,19,6.52374546024498e-07,-0.0050000000000000044
P4,0,1,19,4.816715926500956e-07,-0.0050000000000000044
P6,0,1,19,1.146446212765128e-07,-0.0050000000000000044
P2,0,1,19,6.860366981837367e-07,-0.0050000000000000044
P1,0,1,19,7.347945053679105e-07,-0.0050000000000000044
P3,0,1,19,7.796213227659476e-07,-0.0050000000000000044
P5,0,1,19,7.116041134041216e-07,-0.0050000000000000044
PO3,0,1,19,5.331948670289272e-07,-0.0050000000000000044
O1,0,1,19,-1.6162294477384332e-07,-0.0050000000000000044
Pz,0,1,19,1.0487778803809175e-06,-0.0050000000000000044
POz,0,1,19,5.662278796618167e-07,-0.0050000000000000044
Oz,0,1,19,7.860775739002488e-07,-0.0050000000000000044
Iz,0,1,19,7.448227069205319e-07,-0.0050000000000000044
O2,0,1,20,9.809712636031833e-08,0.0
PO4,0,1,20,3.349481952821199e-07,0.0
P4,0,1,20,2.3379631387200693e-07,0.0
P6,0,1,20,-5.627230552384147e-08,0.0
P2,0,1,20,5.415725771853588e-07,0.0
P1,0,1,20,5.032141096937844e-07,0.0
P3,0,1,20,6.264621662670127e-07,0.0
P5,0,1,20,5.200841069752218e-07,0.0
PO3,0,1,20,4.568706601426353e-07,0.0
O1,0,1,20,-1.6080774485809408e-07,0.0
Pz,0,1,20,7.148248070475658e-07,0.0
POz,0,1,20,4.3422158717479707e-07,0.0
Oz,0,1,20,4.4681073635791783e-07,0.0
Iz,0,1,20,3.7571896266973325e-07,0.0
O2,0,1,21,1.3180883654229305e-07,0.0049999999999999906
PO4,0,1,21,2.855012926340032e-07,0.0049999999999999906
P4,0,1,21,2.422699328978292e-07,0.0049999999999999906
P6,0,1,21,-1.3988208004074782e-07,0.0049999999999999906
P2,0,1,21,5.375840709595184e-07,0.0049999999999999906
P1,0,1,21,6.465560522069541e-07,0.0049999999999999906
P3,0,1,21,6.8670682479555e-07,0.0049999999999999906
P5,0,1,21,4.214975517338885e-07,0.0049999999999999906
PO3,0,1,21,5.522971629027602e-07,0.0049999999999999906
O1,0,1,21,-1.4649648402997586e-07,0.0049999999999999906
Pz,0,1,21,8.843401738181995e-07,0.0049999999999999906
POz,0,1,21,3.8316774040633755e-07,0.0049999999999999906
Oz,0,1,21,5.191432783305725e-07,0.0049999999999999906
Iz,0,1,21,4.375234287727069e-07,0.0049999999999999906
O2,0,1,22,4.421365721137523e-08,0.009999999999999995
PO4,0,1,22,2.0509938845797296e-07,0.009999999999999995
P4,0,1,22,2.6374061580472197e-07,0.009999999999999995
P6,0,1,22,-2.4346407596958384e-07,0.009999999999999995
P2,0,1,22,4.1987790094572116e-07,0.009999999999999995
P1,0,1,22,7.168928233740607e-07,0.009999999999999995
P3,0,1,22,5.50414556471688e-07,0.009999999999999995
P5,0,1,22,9.186282154808759e-08,0.009999999999999995
PO3,0,1,22,4.2423137472328714e-07,0.009999999999999995
O1,0,1,22,-2.942098742906959e-07,0.009999999999999995
Pz,0,1,22,8.482006815059816e-07,0.009999999999999995
POz,0,1,22,2.922131518592766e-07,0.009999999999999995
Oz,0,1,22,5.581744669228275e-07,0.009999999999999995
Iz,0,1,22,2.6357643741836527e-07,0.009999999999999995
O2,0,1,23,-4.309916091682607e-07,0.015
PO4,0,1,23,-1.8148236344649526e-07,0.015
P4,0,1,23,8.835342220471544e-08,0.015
P6,0,1,23,-6.025832108620048e-07,0.015
P2,0,1,23,3.5749804287225665e-07,0.015
P1,0,1,23,6.066640715981948e-07,0.015
P3,0,1,23,7.669032952110453e-07,0.015
P5,0,1,23,1.156215884600856e-07,0.015
PO3,0,1,23,4.6432379296498674e-07,0.015
O1,0,1,23,-5.429429115170689e-07,0.015
Pz,0,1,23,8.127531310318821e-07,0.015
POz,0,1,23,1.087550041477536e-07,0.015
Oz,0,1,23,1.349649766669564e-07,0.015
Iz,0,1,23,-7.721791228924545e-08,0.015
O2,0,1,24,-1.158401938249579e-06,0.01999999999999999
PO4,0,1,24,-6.19447128023591e-07,0.01999999999999999
P4,0,1,24,-2.1055432692746906e-07,0.01999999999999999
P6,0,1,24,-7.630657060883246e-07,0.01999999999999999
P2,0,1,24,1.0368825503052936e-07,0.01999999999999999
P1,0,1,24,3.412121542867519e-07,0.01999999999999999
P3,0,1,24,7.292975436756707e-07,0.01999999999999999
P5,0,1,24,1.1976000786044715e-07,0.01999999999999999
PO3,0,1,24,2.1277328111897087e-07,0.01999999999999999
O1,0,1,24,-6.545910933447465e-07,0.01999999999999999
Pz,0,1,24,7.595221245550675e-07,0.01999999999999999
POz,0,1,24,-2.5872400868986626e-07,0.01999999999999999
Oz,0,1,24,-3.1637398779629396e-07,0.01999999999999999
Iz,0,1,24,-5.728875525580967e-07,0.01999999999999999
O2,0,1,25,-1.1883889756193584e-06,0.024999999999999994
PO4,0,1,25,-5.959898736443725e-07,0.024999999999999994
P4,0,1,25,-1.7367259844116003e-07,0.024999999999999994
P6,0,1,25,-8.023042623138318e-07,0.024999999999999994
P2,0,1,25,-7.735709727982192e-08,0.024999999999999994
P1,0,1,25,1.0585797314029735e-07,0.024999999999999994
P3,0,1,25,3.111944259250662e-07,0.024999999999999994
P5,0,1,25,-1.8931106913129403e-07,0.024999999999999994
PO3,0,1,25,-1.5508940684740946e-07,0.024999999999999994
O1,0,1,25,-8.788818778384631e-07,0.024999999999999994
Pz,0,1,25,6.803420957872412e-07,0.024999999999999994
POz,0,1,25,-4.6434096330672205e-07,0.024999999999999994
Oz,0,1,25,-4.085870185817007e-07,0.024999999999999994
Iz,0,1,25,-3.999298332420872e-07,0.024999999999999994
O2,0,1,26,-1.4419563610113302e-06,0.03
PO4,0,1,26,-8.640345762904292e-07,0.03
P4,0,1,26,-2.77934539714627e-07,0.03
P6,0,1,26,-8.689077114151817e-07,0.03
P2,0,1,26,-3.000593085755964e-07,0.03
P1,0,1,26,-2.7883695952375865e-07,0.03
P3,0,1,26,8.860530108034e-08,0.03
P5,0,1,26,-3.326992989326095e-07,0.03
PO3,0,1,26,-5.152374556696482e-07,0.03
O1,0,1,26,-1.228176232116653e-06,0.03
Pz,0,1,26,4.4166239298650094e-07,0.03
POz,0,1,26,-7.81114390068697e-07,0.03
Oz,0,1,26,-9.020640596358239e-07,0.03
Iz,0,1,26,-5.814600873738637e-07,0.03
O2,0,1,27,-1.5346858667854342e-06,0.035
PO4,0,1,27,-1.1764368234332988e-06,0.035
P4,0,1,27,-5.429402461648621e-07,0.035
P6,0,1,27,-1.0551426381200806e-06,0.035
P2,0,1,27,-4.016005759258898e-07,0.035
P1,0,1,27,-4.7171378391592276e-07,0.035
P3,0,1,27,3.581562604461613e-08,0.035
P5,0,1,27,-3.3193658119077303e-07,0.035
PO3,0,1,27,-7.398723475607415e-07,0.035
O1,0,1,27,-1.3171059982739173e-06,0.035
Pz,0,1,27,7.459007407216038e-08,0.035
POz,0,1,27,-9.795383156629404e-07,0.035
Oz,0,1,27,-9.312360873084864e-07,0.035
Iz,0,1,27,-3.836329425120941e-07,0.035
O2,0,1,28,-1.325529824478071e-06,0.04000000000000001
