channel,attention,cued_side,timepoint,erp,time
O2,0,0,0,-3.249561362730438e-07,-0.1
PO4,0,0,0,-1.081811629621913e-06,-0.1
P4,0,0,0,-1.62254919258407e-06,-0.1
P6,0,0,0,-9.279785422202926e-07,-0.1
P2,0,0,0,-2.0007544261663255e-06,-0.1
P1,0,0,0,-2.1558459230086393e-06,-0.1
P3,0,0,0,-1.6754648214998418e-06,-0.1
P5,0,0,0,-7.849900032047192e-07,-0.1
PO3,0,0,0,-1.4735184074209372e-06,-0.1
O1,0,0,0,-5.627626278980139e-07,-0.1
Pz,0,0,0,-2.0906114290167346e-06,-0.1
POz,0,0,0,-1.4225934190853992e-06,-0.1
Oz,0,0,0,-3.650254993445379e-07,-0.1
Iz,0,0,0,4.0856225626650397e-07,-0.1
O2,0,0,1,-9.413742455781694e-08,-0.095
PO4,0,0,1,-1.1789444744594049e-06,-0.095
P4,0,0,1,-1.8213731825068401e-06,-0.095
P6,0,0,1,-9.140309902487838e-07,-0.095
P2,0,0,1,-2.113929059429302e-06,-0.095
P1,0,0,1,-2.1352309215345842e-06,-0.095
P3,0,0,1,-1.7891080025635202e-06,-0.095
P5,0,0,1,-7.814324996820158e-07,-0.095
PO3,0,0,1,-1.2512382611877014e-06,-0.095
O1,0,0,1,-1.204701656747701e-07,-0.095
Pz,0,0,1,-2.2032988116265106e-06,-0.095
POz,0,0,1,-1.3264599096159023e-06,-0.095
Oz,0,0,1,-1.5080552771235154e-07,-0.095
Iz,0,0,1,9.99117262162104e-07,-0.095
O2,0,0,2,-6.689973922257588e-08,-0.09000000000000001
PO4,0,0,2,-1.0840833129569928e-06,-0.09000000000000001
P4,0,0,2,-1.8754271271257466e-06,-0.09000000000000001
P6,0,0,2,-9.707816468282684e-07,-0.09000000000000001
P2,0,0,2,-2.0621813056107368e-06,-0.09000000000000001
P1,0,0,2,-2.1045338398678072e-06,-0.09000000000000001
P3,0,0,2,-1.730044850779144e-06,-0.09000000000000001
P5,0,0,2,-7.441641407259072e-07,-0.09000000000000001
PO3,0,0,2,-1.1088976894104386e-06,-0.09000000000000001
O1,0,0,2,-8.483423985144298e-08,-0.09000000000000001
Pz,0,0,2,-2.1693696230132607e-06,-0.09000000000000001
POz,0,0,2,-1.2026583261065196e-06,-0.09000000000000001
Oz,0,0,2,-5.230820068392214e-08,-0.09000000000000001
Iz,0,0,2,9.029411470222848e-07,-0.09000000000000001
O2,0,0,3,-1.8193146309936266e-07,-0.085
PO4,0,0,3,-1.0497868434254137e-06,-0.085
P4,0,0,3,-1.7924657090423739e-06,-0.085
P6,0,0,3,-9.121697283647556e-07,-0.085
P2,0,0,3,-1.9363190966625905e-06,-0.085
P1,0,0,3,-2.225941642559129e-06,-0.085
P3,0,0,3,-2.0173583289657327e-06,-0.085
P5,0,0,3,-9.196053739357698e-07,-0.085
PO3,0,0,3,-1.432883774701958e-06,-0.085
O1,0,0,3,-3.8069790142886885e-07,-0.085
Pz,0,0,3,-2.081662663651339e-06,-0.085
POz,0,0,3,-1.3469111061940587e-06,-0.085
Oz,0,0,3,-1.751797813273831e-07,-0.085
Iz,0,0,3,7.666576900033459e-07,-0.085
O2,0,0,4,-3.6866588187110257e-07,-0.08
PO4,0,0,4,-1.2380913388183297e-06,-0.08
P4,0,0,4,-1.8581335383511847e-06,-0.08
P6,0,0,4,-9.451434201622284e-07,-0.08
P2,0,0,4,-2.26431398070264e-06,-0.08
P1,0,0,4,-2.553530492101517e-06,-0.08
P3,0,0,4,-2.355525678073525e-06,-0.08
P5,0,0,4,-1.3774325148227694e-06,-0.08
PO3,0,0,4,-1.7878925008887321e-06,-0.08
O1,0,0,4,-7.497299473920521e-07,-0.08
Pz,0,0,4,-2.4700154050645854e-06,-0.08
POz,0,0,4,-1.667525910281904e-06,-0.08
Oz,0,0,4,-4.129105570320865e-07,-0.08
Iz,0,0,4,5.077233065644165e-07,-0.08
O2,0,0,5,-7.357705717227941e-07,-0.07500000000000001
PO4,0,0,5,-1.4567975489895178e-06,-0.07500000000000001
P4,0,0,5,-2.2630951025430114e-06,-0.07500000000000001
P6,0,0,5,-1.1079361096605422e-06,-0.07500000000000001
P2,0,0,5,-2.550110192763861e-06,-0.07500000000000001
P1,0,0,5,-2.713046551328672e-06,-0.07500000000000001
P3,0,0,5,-2.4279228175175686e-06,-0.07500000000000001
P5,0,0,5,-1.3760734249660622e-06,-0.07500000000000001
PO3,0,0,5,-1.7795445052013347e-06,-0.07500000000000001
O1,0,0,5,-7.433513514858366e-07,-0.07500000000000001
Pz,0,0,5,-2.629195927570494e-06,-0.07500000000000001
POz,0,0,5,-1.884635235290864e-06,-0.07500000000000001
Oz,0,0,5,-5.508693023209387e-07,-0.07500000000000001
Iz,0,0,5,5.124640232000084e-07,-0.07500000000000001
O2,0,0,6,-5.095596664671574e-07,-0.07
PO4,0,0,6,-1.6965149305016152e-06,-0.07
P4,0,0,6,-2.606732720794266e-06,-0.07
P6,0,0,6,-1.3442772185715786e-06,-0.07
P2,0,0,6,-2.748659445061561e-06,-0.07
P1,0,0,6,-2.7614015790268914e-06,-0.07
P3,0,0,6,-2.4557767859996016e-06,-0.07
P5,0,0,6,-1.2910283420462492e-06,-0.07
PO3,0,0,6,-1.7665640617913807e-06,-0.07
O1,0,0,6,-4.906190343572524e-07,-0.07
Pz,0,0,6,-2.795184059902634e-06,-0.07
POz,0,0,6,-1.8803171851700978e-06,-0.07
Oz,0,0,6,-4.111843486281903e-07,-0.07
Iz,0,0,6,7.879096038779625e-07,-0.07
O2,0,0,7,-1.046956865701586e-06,-0.065
PO4,0,0,7,-2.190354175908069e-06,-0.065
P4,0,0,7,-2.9508502880066967e-06,-0.065
P6,0,0,7,-1.693873619797566e-06,-0.065
P2,0,0,7,-3.12354166196988e-06,-0.065
P1,0,0,7,-2.6676734800606194e-06,-0.065
P3,0,0,7,-2.277289207834672e-06,-0.065
P5,0,0,7,-1.1019903108673878e-06,-0.065
PO3,0,0,7,-1.778376089841562e-06,-0.065
O1,0,0,7,-8.412381235273253e-07,-0.065
Pz,0,0,7,-2.974949219832134e-06,-0.065
POz,0,0,7,-2.22199333361658e-06,-0.065
Oz,0,0,7,-8.476560308241439e-07,-0.065
Iz,0,0,7,2.2153258027035557e-07,-0.065
O2,0,0,8,-1.0382171865102928e-06,-0.060000000000000005
PO4,0,0,8,-2.5260738502993445e-06,-0.060000000000000005
P4,0,0,8,-3.3325024603889977e-06,-0.060000000000000005
P6,0,0,8,-2.227528834741782e-06,-0.060000000000000005
P2,0,0,8,-3.513394548005111e-06,-0.060000000000000005
P1,0,0,8,-2.8395797620823697e-06,-0.060000000000000005
P3,0,0,8,-2.3012854203075673e-06,-0.060000000000000005
P5,0,0,8,-9.232724468812655e-07,-0.060000000000000005
PO3,0,0,8,-1.8287837703960205e-06,-0.060000000000000005
O1,0,0,8,-7.616824370483928e-07,-0.060000000000000005
Pz,0,0,8,-3.2444145824511763e-06,-0.060000000000000005
POz,0,0,8,-2.37780083335053e-06,-0.060000000000000005
Oz,0,0,8,-9.147438005273261e-07,-0.060000000000000005
Iz,0,0,8,3.191643458902647e-07,-0.060000000000000005
O2,0,0,9,-9.841826584217665e-07,-0.05500000000000001
PO4,0,0,9,-2.4316265610006817e-06,-0.05500000000000001
P4,0,0,9,-3.381357182764341e-06,-0.05500000000000001
P6,0,0,9,-2.141897964395804e-06,-0.05500000000000001
P2,0,0,9,-3.4176494221606695e-06,-0.05500000000000001
P1,0,0,9,-2.7470228259528174e-06,-0.05500000000000001
P3,0,0,9,-2.0819914630169205e-06,-0.05500000000000001
P5,0,0,9,-6.773460427436615e-07,-0.05500000000000001
PO3,0,0,9,-1.723859359976577e-06,-0.05500000000000001
O1,0,0,9,-7.345665263671932e-07,-0.05500000000000001
Pz,0,0,9,-3.201493235901696e-06,-0.05500000000000001
POz,0,0,9,-2.296536278317191e-06,-0.05500000000000001
Oz,0,0,9,-8.43396427726931e-07,-0.05500000000000001
Iz,0,0,9,3.4753950582326976e-07,-0.05500000000000001
O2,0,0,10,-7.891771715377596e-07,-0.05
PO4,0,0,10,-2.3789942981470202e-06,-0.05
P4,0,0,10,-3.2641493635343353e-06,-0.05
P6,0,0,10,-2.151064341655126e-06,-0.05
P2,0,0,10,-3.490907703509883e-06,-0.05
P1,0,0,10,-2.9311188104248696e-06,-0.05
P3,0,0,10,-2.2411263974629018e-06,-0.05
P5,0,0,10,-8.681095308200614e-07,-0.05
PO3,0,0,10,-1.8545153948684965e-06,-0.05
O1,0,0,10,-5.989167093523427e-07,-0.05
Pz,0,0,10,-3.3240938694953023e-06,-0.05
POz,0,0,10,-2.3183662213893792e-06,-0.05
Oz,0,0,10,-7.478469297020844e-07,-0.05
Iz,0,0,10,5.172362524095727e-07,-0.05
O2,0,0,11,-9.304833786440969e-07,-0.045000000000000005
PO4,0,0,11,-2.28378183708745e-06,-0.045000000000000005
P4,0,0,11,-3.0213152096151604e-06,-0.045000000000000005
P6,0,0,11,-2.012310239510201e-06,-0.045000000000000005
P2,0,0,11,-3.4463534202820774e-06,-0.045000000000000005
P1,0,0,11,-2.836807929314642e-06,-0.045000000000000005
P3,0,0,11,-2.0845261152989002e-06,-0.045000000000000005
P5,0,0,11,-7.056217617563182e-07,-0.045000000000000005
PO3,0,0,11,-1.550404875145137e-06,-0.045000000000000005
O1,0,0,11,-5.279473161677361e-07,-0.045000000000000005
Pz,0,0,11,-3.2963865181187937e-06,-0.045000000000000005
POz,0,0,11,-2.22439468416771e-06,-0.045000000000000005
Oz,0,0,11,-7.216037794022223e-07,-0.045000000000000005
Iz,0,0,11,3.187201164001958e-07,-0.045000000000000005
O2,0,0,12,-1.0104115624609457e-06,-0.04000000000000001
PO4,0,0,12,-2.249614354335062e-06,-0.04000000000000001
P4,0,0,12,-3.1205073482894816e-06,-0.04000000000000001
P6,0,0,12,-1.940504460133953e-06,-0.04000000000000001
P2,0,0,12,-3.4174469346231866e-06,-0.04000000000000001
P1,0,0,12,-2.8644287585356204e-06,-0.04000000000000001
P3,0,0,12,-2.2082807836216226e-06,-0.04000000000000001
P5,0,0,12,-8.75198162016803e-07,-0.04000000000000001
PO3,0,0,12,-1.8465203918560653e-06,-0.04000000000000001
O1,0,0,12,-6.810864560010916e-07,-0.04000000000000001
Pz,0,0,12,-3.248148757731237e-06,-0.04000000000000001
POz,0,0,12,-2.345567673293916e-06,-0.04000000000000001
Oz,0,0,12,-7.766709565413743e-07,-0.04000000000000001
Iz,0,0,12,2.8585120212358375e-07,-0.04000000000000001
O2,0,0,13,-1.0713638413095533e-06,-0.035
PO4,0,0,13,-2.473274934822333e-06,-0.035
P4,0,0,13,-3.393289473193476e-06,-0.035
P6,0,0,13,-2.4137941195787446e-06,-0.035
P2,0,0,13,-3.603221363967358e-06,-0.035
P1,0,0,13,-2.7257726347727234e-06,-0.035
P3,0,0,13,-1.8239091749117116e-06,-0.035
P5,0,0,13,-5.983890006379893e-07,-0.035
PO3,0,0,13,-1.7506344715264187e-06,-0.035
O1,0,0,13,-7.074593564768694e-07,-0.035
Pz,0,0,13,-3.270511102088023e-06,-0.035
POz,0,0,13,-2.335831183792153e-06,-0.035
Oz,0,0,13,-7.881648359118084e-07,-0.035
Iz,0,0,13,2.678241910530495e-07,-0.035
O2,0,0,14,-1.0199116050068722e-06,-0.03
PO4,0,0,14,-2.3571590850449548e-06,-0.03
P4,0,0,14,-3.221040843592013e-06,-0.03
P6,0,0,14,-2.1744888889817887e-06,-0.03
P2,0,0,14,-3.433826040202605e-06,-0.03
P1,0,0,14,-2.6228014170458783e-06,-0.03
P3,0,0,14,-1.7364275376361116e-06,-0.03
P5,0,0,14,-2.4484982478611394e-07,-0.03
PO3,0,0,14,-1.6900784816383457e-06,-0.03
O1,0,0,14,-3.764363133559462e-07,-0.03
Pz,0,0,14,-3.215176899486484e-06,-0.03
POz,0,0,14,-2.2305643989236527e-06,-0.03
Oz,0,0,14,-6.25712446929357e-07,-0.03
Iz,0,0,14,4.874706260317783e-07,-0.03
O2,0,0,15,-9.113086380978903e-07,-0.02500000000000001
PO4,0,0,15,-2.3118848010055553e-06,-0.02500000000000001
P4,0,0,15,-3.1921198618854567e-06,-0.02500000000000001
P6,0,0,15,-2.4010767776904137e-06,-0.02500000000000001
P2,0,0,15,-3.4238251435702463e-06,-0.02500000000000001
P1,0,0,15,-2.6860171779618573e-06,-0.02500000000000001
P3,0,0,15,-1.7516929253367627e-06,-0.02500000000000001
P5,0,0,15,-4.984360769515892e-07,-0.02500000000000001
PO3,0,0,15,-1.6445877365879877e-06,-0.02500000000000001
O1,0,0,15,-3.128461180706177e-07,-0.02500000000000001
Pz,0,0,15,-3.214813954294122e-06,-0.02500000000000001
POz,0,0,15,-2.1111368067392212e-06,-0.02500000000000001
Oz,0,0,15,-5.612453934156052e-07,-0.02500000000000001
Iz,0,0,15,4.1979600346587754e-07,-0.02500000000000001
O2,0,0,16,-9.644110159220139e-07,-0.020000000000000004
PO4,0,0,16,-2.3620767403705487e-06,-0.020000000000000004
P4,0,0,16,-3.4876971022112246e-06,-0.020000000000000004
P6,0,0,16,-2.6018823913799627e-06,-0.020000000000000004
P2,0,0,16,-3.5330002627394888e-06,-0.020000000000000004
P1,0,0,16,-2.76281286029691e-06,-0.020000000000000004
P3,0,0,16,-1.885306349212864e-06,-0.020000000000000004
P5,0,0,16,-4.291333697506469e-07,-0.020000000000000004
PO3,0,0,16,-1.7517723866651721e-06,-0.020000000000000004
O1,0,0,16,-3.3623699240739886e-07,-0.020000000000000004
Pz,0,0,16,-3.1381459567802947e-06,-0.020000000000000004
POz,0,0,16,-2.0971021159354445e-06,-0.020000000000000004
Oz,0,0,16,-4.752529806603003e-07,-0.020000000000000004
Iz,0,0,16,6.308462198794836e-07,-0.020000000000000004
O2,0,0,17,-8.272254957076284e-07,-0.015
PO4,0,0,17,-2.3710389623903377e-06,-0.015
P4,0,0,17,-3.4183885850848856e-06,-0.015
P6,0,0,17,-2.4500320019163226e-06,-0.015
P2,0,0,17,-3.5867797716000882e-06,-0.015
P1,0,0,17,-2.8076540945693594e-06,-0.015
P3,0,0,17,-1.891187793099396e-06,-0.015
P5,0,0,17,-2.8721837958380544e-07,-0.015
PO3,0,0,17,-1.5627539275911794e-06,-0.015
O1,0,0,17,-1.8821571474705677e-07,-0.015
Pz,0,0,17,-3.1840702946405587e-06,-0.015
POz,0,0,17,-2.141587656532878e-06,-0.015
Oz,0,0,17,-3.7837890079937327e-07,-0.015
Iz,0,0,17,6.945911393453905e-07,-0.015
O2,0,0,18,-9.844273705262485e-07,-0.010000000000000009
PO4,0,0,18,-2.323311280250305e-06,-0.010000000000000009
P4,0,0,18,-3.440284128826184e-06,-0.010000000000000009
P6,0,0,18,-2.4475471247216294e-06,-0.010000000000000009
P2,0,0,18,-3.547111884930956e-06,-0.010000000000000009
P1,0,0,18,-2.764916511255628e-06,-0.010000000000000009
P3,0,0,18,-1.9695099107425075e-06,-0.010000000000000009
P5,0,0,18,-3.9987517529068453e-07,-0.010000000000000009
PO3,0,0,18,-1.6207978562562934e-06,-0.010000000000000009
O1,0,0,18,-1.8369777567396936e-07,-0.010000000000000009
Pz,0,0,18,-3.214326321720016e-06,-0.010000000000000009
POz,0,0,18,-2.1528818994208617e-06,-0.010000000000000009
Oz,0,0,18,-6.010475566315637e-07,-0.010000000000000009
Iz,0,0,18,4.6589537382361953e-07,-0.010000000000000009
O2,0,0,19,-5.424107671025398e-07,-0.0050000000000000044
PO4,0,0,19,-2.0248696396350727e-06,-0.0050000000000000044
P4,0,0,19,-3.0444690586657387e-06,-0.0050000000000000044
P6,0,0,19,-2.126471682783117e-06,-0.0050000000000000044
P2,0,0,19,-3.2687924909295175e-06,-0.0050000000000000044
P1,0,0,19,-2.734392909394177e-06,-0.0050000000000000044
P3,0,0,19,-2.015906934061189e-06,-0.0050000000000000044
P5,0,0,19,-4.415696505179619e-07,-0.0050000000000000044
PO3,0,0,19,-1.6192440249751386e-06,-0.0050000000000000044
O1,0,0,19,-1.1520733044460279e-07,-0.0050000000000000044
Pz,0,0,19,-3.1147945442617276e-06,-0.0050000000000000044
POz,0,0,19,-1.9640679041904448e-06,-0.0050000000000000044
Oz,0,0,19,-2.531026636781264e-07,-0.0050000000000000044
Iz,0,0,19,9.880786224740624e-07,-0.0050000000000000044
O2,0,0,20,-7.12078361231876e-07,0.0
PO4,0,0,20,-1.8652485990510049e-06,0.0
P4,0,0,20,-2.7518728418401465e-06,0.0
P6,0,0,20,-1.8837909981444083e-06,0.0
P2,0,0,20,-2.9693745485120546e-06,0.0
P1,0,0,20,-2.706220954168116e-06,0.0
P3,0,0,20,-2.0256768570204382e-06,0.0
P5,0,0,20,-6.135529857892401e-07,0.0
PO3,0,0,20,-1.6816207647016747e-06,0.0
O1,0,0,20,-5.341310326282824e-07,0.0
Pz,0,0,20,-2.9302126213316556e-06,0.0
POz,0,0,20,-1.816248067549904e-06,0.0
Oz,0,0,20,-3.897628720949809e-07,0.0
Iz,0,0,20,6.695692878083612e-07,0.0
O2,0,0,21,-5.978615314332054e-07,0.0049999999999999906
PO4,0,0,21,-1.676869588062839e-06,0.0049999999999999906
P4,0,0,21,-2.419328086201965e-06,0.0049999999999999906
P6,0,0,21,-1.4521832270244266e-06,0.0049999999999999906
P2,0,0,21,-2.692023896030817e-06,0.0049999999999999906
P1,0,0,21,-2.8052650887067504e-06,0.0049999999999999906
P3,0,0,21,-2.114310716499051e-06,0.0049999999999999906
P5,0,0,21,-8.486253764639231e-07,0.0049999999999999906
PO3,0,0,21,-1.7126027105616756e-06,0.0049999999999999906
O1,0,0,21,-3.770471480562632e-07,0.0049999999999999906
Pz,0,0,21,-2.8913100096157556e-06,0.0049999999999999906
POz,0,0,21,-1.7524131822467321e-06,0.0049999999999999906
Oz,0,0,21,-3.623910182097887e-07,0.0049999999999999906
Iz,0,0,21,9.534957703076084e-07,0.0049999999999999906
O2,0,0,22,-2.972022723704789e-07,0.009999999999999995
PO4,0,0,22,-1.6003212551827915e-06,0.009999999999999995
P4,0,0,22,-2.2320422053884765e-06,0.009999999999999995
P6,0,0,22,-1.2746949445763923e-06,0.009999999999999995
P2,0,0,22,-2.6568426905616283e-06,0.009999999999999995
P1,0,0,22,-3.050444742533345e-06,0.009999999999999995
P3,0,0,22,-2.4107726821862287e-06,0.009999999999999995
P5,0,0,22,-1.140734646555406e-06,0.009999999999999995
PO3,0,0,22,-1.9168302047210756e-06,0.009999999999999995
O1,0,0,22,-5.859790119018308e-07,0.009999999999999995
Pz,0,0,22,-3.057506805157102e-06,0.009999999999999995
POz,0,0,22,-1.8235057500533735e-06,0.009999999999999995
Oz,0,0,22,-2.89655086193067e-07,0.009999999999999995
Iz,0,0,22,8.774582649575817e-07,0.009999999999999995
O2,0,0,23,-4.356028501132438e-07,0.015
PO4,0,0,23,-1.516761950473232e-06,0.015
P4,0,0,23,-1.908437092310901e-06,0.015
P6,0,0,23,-8.993967436109259e-07,0.015
P2,0,0,23,-2.4658592845068722e-06,0.015
P1,0,0,23,-2.9731090427671517e-06,0.015
P3,0,0,23,-2.3168483977730134e-06,0.015
P5,0,0,23,-9.798816402729882e-07,0.015
PO3,0,0,23,-1.7211470437508223e-06,0.015
O1,0,0,23,-4.0835508389250045e-07,0.015
Pz,0,0,23,-2.9327347111182514e-06,0.015
POz,0,0,23,-1.715289399987947e-06,0.015
Oz,0,0,23,-2.960109099906237e-07,0.015
Iz,0,0,23,1.026694668756023e-06,0.015
O2,0,0,24,-3.1893556210304613e-07,0.01999999999999999
PO4,0,0,24,-1.7166551737969828e-06,0.01999999999999999
P4,0,0,24,-2.2066998916054885e-06,0.01999999999999999
P6,0,0,24,-1.1650086788489864e-06,0.01999999999999999
P2,0,0,24,-2.690029852545783e-06,0.01999999999999999
P1,0,0,24,-3.149014446294016e-06,0.01999999999999999
P3,0,0,24,-2.371473668264994e-06,0.01999999999999999
P5,0,0,24,-7.68378500878487e-07,0.01999999999999999
PO3,0,0,24,-1.7374961753094873e-06,0.01999999999999999
O1,0,0,24,-5.407697892029127e-07,0.01999999999999999
Pz,0,0,24,-3.177462061809617e-06,0.01999999999999999
POz,0,0,24,-2.0047233471815947e-06,0.01999999999999999
Oz,0,0,24,-2.646780092803346e-07,0.01999999999999999
Iz,0,0,24,1.1303762173924122e-06,0.01999999999999999
O2,0,0,25,-2.3445249680428678e-07,0.024999999999999994
PO4,0,0,25,-1.6595926892139942e-06,0.024999999999999994
P4,0,0,25,-2.06616524676662e-06,0.024999999999999994
P6,0,0,25,-1.0897277472659411e-06,0.024999999999999994
P2,0,0,25,-2.787802203262045e-06,0.024999999999999994
P1,0,0,25,-2.949019802510276e-06,0.024999999999999994
P3,0,0,25,-2.238320066193661e-06,0.024999999999999994
P5,0,0,25,-7.569403428709847e-07,0.024999999999999994
PO3,0,0,25,-1.516917682804132e-06,0.024999999999999994
O1,0,0,25,-5.1478632934438756e-08,0.024999999999999994
Pz,0,0,25,-3.1710061377099897e-06,0.024999999999999994
POz,0,0,25,-1.817225484440274e-06,0.024999999999999994
Oz,0,0,25,4.524535523467037e-08,0.024999999999999994
Iz,0,0,25,1.3729646419507784e-06,0.024999999999999994
O2,0,0,26,-1.7020027374318582e-07,0.03
PO4,0,0,26,-1.4453664456482238e-06,0.03
P4,0,0,26,-2.107932839530344e-06,0.03
P6,0,0,26,-9.662178240992983e-07,0.03
P2,0,0,26,-2.7286917229267862e-06,0.03
P1,0,0,26,-2.9020214727242897e-06,0.03
P3,0,0,26,-2.165840435153061e-06,0.03
P5,0,0,26,-6.73755704633178e-07,0.03
PO3,0,0,26,-1.5651805738447678e-06,0.03
O1,0,0,26,-1.3700492618861412e-07,0.03
Pz,0,0,26,-3.0496580351637206e-06,0.03
POz,0,0,26,-1.726663644578368e-06,0.03
Oz,0,0,26,1.3172290899225485e-07,0.03
Iz,0,0,26,1.7012158380916487e-06,0.03
O2,0,0,27,-4.422936878084131e-08,0.035
PO4,0,0,27,-1.57636194596053e-06,0.035
P4,0,0,27,-2.301248014148953e-06,0.035
P6,0,0,27,-1.128968318676144e-06,0.035
P2,0,0,27,-2.8650447760543222e-06,0.035
P1,0,0,27,-2.8719326181401593e-06,0.035
P3,0,0,27,-2.2247965483089477e-06,0.035
P5,0,0,27,-8.557498847720816e-07,0.035
PO3,0,0,27,-1.653630011989643e-06,0.035
O1,0,0,27,-1.4170667569344094e-08,0.035
Pz,0,0,27,-3.0260031738122244e-06,0.035
POz,0,0,27,-1.8208983570187494e-06,0.035
Oz,0,0,27,8.579331795144905e-08,0.035
Iz,0,0,27,1.604647309689284e-06,0.035
O2,0,0,28,-1.573804753165789e-07,0.04000000000000001
PO4,0,0,28,-1.845391773921433e-06,0.04000000000000001
P4,0,0,28,-2.6800558564568772e-06,0.04000000000000001
P6,0,0,28,-1.4252843613117323e-06,0.04000000000000001
P2,0,0,28,-3.1361167214568183e-06,0.04000000000000001
P1,0,0,28,-3.159460923652393e-06,0.04000000000000001
P3,0,0,28,-2.4645442433146905e-06,0.04000000000000001
P5,0,0,28,-1.0772134243017303e-06,0.04000000000000001
PO3,0,0,28,-1.8896313305399956e-06,0.04000000000000001
O1,0,0,28,1.1613690080253125e-07,0.04000000000000001
Pz,0,0,28,-3.188736426402574e-06,0.04000000000000001
POz,0,0,28,-1.981027733503975e-06,0.04000000000000001
Oz,0,0,28,1.2088925127186542e-07,0.04000000000000001
Iz,0,0,28,1.7345848470409668e-06,0.04000000000000001
O2,0,0,29,-2.879356576050825e-07,0.044999999999999984
PO4,0,0,29,-2.0206706860269227e-06,0.044999999999999984
P4,0,0,29,-3.0459200075432215e-06,0.044999999999999984
P6,0,0,29,-1.7372263341940975e-06,0.044999999999999984
P2,0,0,29,-3.334691969653602e-06,0.044999999999999984
P1,0,0,29,-3.1909562635213715e-06,0.044999999999999984
P3,0,0,29,-2.3927301813431556e-06,0.044999999999999984
P5,0,0,29,-8.303573136152179e-07,0.044999999999999984
PO3,0,0,29,-1.7494225597390211e-06,0.044999999999999984
O1,0,0,29,-7.038559703868524e-08,0.044999999999999984
Pz,0,0,29,-3.3965857349786156e-06,0.044999999999999984
POz,0,0,29,-2.1489353617050805e-06,0.044999999999999984
Oz,0,0,29,-1.081750406225163e-07,0.044999999999999984
Iz,0,0,29,1.474316776546697e-06,0.044999999999999984
O2,0,0,30,-1.49898344309988e-07,0.04999999999999999
PO4,0,0,30,-1.8149709522651445e-06,0.04999999999999999
P4,0,0,30,-2.9521335880755582e-06,0.04999999999999999
P6,0,0,30,-1.4654367559435492e-06,0.04999999999999999
P2,0,0,30,-3.2895455722240946e-06,0.04999999999999999
P1,0,0,30,-2.998262092369736e-06,0.04999999999999999
P3,0,0,30,-2.1266669388488096e-06,0.04999999999999999
P5,0,0,30,-5.295202323911398e-07,0.04999999999999999
PO3,0,0,30,-1.4408447995538268e-06,0.04999999999999999
O1,0,0,30,5.795599758434653e-08,0.04999999999999999
Pz,0,0,30,-3.2643194947003417e-06,0.04999999999999999
POz,0,0,30,-1.9892185142298775e-06,0.04999999999999999
Oz,0,0,30,9.054177235060386e-08,0.04999999999999999
Iz,0,0,30,1.7233627994543963e-06,0.04999999999999999
O2,0,0,31,8.494867251750677e-08,0.05499999999999999
PO4,0,0,31,-1.818050490682767e-06,0.05499999999999999
P4,0,0,31,-2.9476684667089733e-06,0.05499999999999999
P6,0,0,31,-1.4981244449832067e-06,0.05499999999999999
P2,0,0,31,-3.147273276998615e-06,0.05499999999999999
P1,0,0,31,-2.6607563123982405e-06,0.05499999999999999
P3,0,0,31,-1.81513465861508e-06,0.05499999999999999
P5,0,0,31,-4.766010260251847e-07,0.05499999999999999
PO3,0,0,31,-1.4421646696361594e-06,0.05499999999999999
O1,0,0,31,2.576468478401024e-07,0.05499999999999999
Pz,0,0,31,-3.0714577259060224e-06,0.05499999999999999
POz,0,0,31,-1.949017137574798e-06,0.05499999999999999
Oz,0,0,31,4.0517753442983527e-07,0.05499999999999999
Iz,0,0,31,2.180081950122408e-06,0.05499999999999999
O2,0,0,32,1.8295903577354547e-08,0.06
PO4,0,0,32,-1.7384272986424667e-06,0.06
P4,0,0,32,-2.710929502844834e-06,0.06
P6,0,0,32,-1.3767442695198784e-06,0.06
P2,0,0,32,-3.048799294291983e-06,0.06
P1,0,0,32,-2.3821581480949838e-06,0.06
P3,0,0,32,-1.679274687401225e-06,0.06
P5,0,0,32,-3.2861123742230724e-07,0.06
PO3,0,0,32,-1.4138192664053996e-06,0.06
O1,0,0,32,-2.699473847225941e-07,0.06
Pz,0,0,32,-2.8615359973023603e-06,0.06
POz,0,0,32,-1.7356485642160956e-06,0.06
Oz,0,0,32,1.7129114445367578e-07,0.06
Iz,0,0,32,1.4856734420980697e-06,0.06
O2,0,0,33,-1.6185071275979996e-07,0.065
PO4,0,0,33,-1.422270694080045e-06,0.065
P4,0,0,33,-2.711821843778715e-06,0.065
P6,0,0,33,-1.5448714116578195e-06,0.065
P2,0,0,33,-2.805751394042276e-06,0.065
P1,0,0,33,-2.017662474807163e-06,0.065
P3,0,0,33,-1.2550470956653263e-06,0.065
P5,0,0,33,-1.4265668932585634e-07,0.065
PO3,0,0,33,-9.003426914388143e-07,0.065
O1,0,0,33,1.6234178407104393e-07,0.065
Pz,0,0,33,-2.541783799313896e-06,0.065
POz,0,0,33,-1.3060279751950662e-06,0.065
Oz,0,0,33,2.0407087495756796e-07,0.065
Iz,0,0,33,1.5891182897696255e-06,0.065
O2,0,0,34,-3.4208047027397457e-07,0.07
PO4,0,0,34,-1.4689347240434113e-06,0.07
P4,0,0,34,-2.713743675814834e-06,0.07
P6,0,0,34,-1.574555178839175e-06,0.07
P2,0,0,34,-2.8188003465733695e-06,0.07
P1,0,0,34,-1.6308968857950477e-06,0.07
P3,0,0,34,-5.877045497483835e-07,0.07
P5,0,0,34,6.728323573520382e-07,0.07
PO3,0,0,34,-5.509812295543131e-07,0.07
O1,0,0,34,1.1609922184012549e-07,0.07
Pz,0,0,34,-2.369841336975259e-06,0.07
POz,0,0,34,-1.3004079916423025e-06,0.07
Oz,0,0,34,-9.666450150434237e-08,0.07
Iz,0,0,34,8.932445369773363e-07,0.07
O2,0,0,35,-1.7558050246382787e-07,0.07500000000000001
PO4,0,0,35,-1.5478914598351705e-06,0.07500000000000001
P4,0,0,35,-2.690891310136942e-06,0.07500000000000001
P6,0,0,35,-1.5767572803180043e-06,0.07500000000000001
P2,0,0,35,-2.7625535833876373e-06,0.07500000000000001
P1,0,0,35,-1.5025667298719469e-06,0.07500000000000001
P3,0,0,35,-2.3105138206180337e-07,0.07500000000000001
P5,0,0,35,1.0961224524867287e-06,0.07500000000000001
PO3,0,0,35,4.222217500586633e-08,0.07500000000000001
O1,0,0,35,5.021160198583604e-07,0.07500000000000001
Pz,0,0,35,-2.307738635903362e-06,0.07500000000000001
POz,0,0,35,-1.1687614575437958e-06,0.07500000000000001
Oz,0,0,35,1.360101485331817e-07,0.07500000000000001
Iz,0,0,35,1.156424300848076e-06,0.07500000000000001
O2,0,0,36,-4.173673536042394e-07,0.07999999999999999
PO4,0,0,36,-1.20192164732484e-06,0.07999999999999999
P4,0,0,36,-2.309540878997699e-06,0.07999999999999999
P6,0,0,36,-1.3832693249508032e-06,0.07999999999999999
P2,0,0,36,-2.29620952960407e-06,0.07999999999999999
P1,0,0,36,-1.1473084690393346e-06,0.07999999999999999
P3,0,0,36,-1.1939053370753505e-07,0.07999999999999999
P5,0,0,36,9.5968624341762e-07,0.07999999999999999
PO3,0,0,36,1.3733058439570907e-07,0.07999999999999999
O1,0,0,36,6.220170207363202e-07,0.07999999999999999
Pz,0,0,36,-1.9212713546615334e-06,0.07999999999999999
POz,0,0,36,-7.609038960066395e-07,0.07999999999999999
Oz,0,0,36,1.7986064955841226e-07,0.07999999999999999
Iz,0,0,36,8.051510638859505e-07,0.07999999999999999
O2,0,0,37,-3.7908119740321064e-07,0.08499999999999999
PO4,0,0,37,-5.769797781029027e-07,0.08499999999999999
P4,0,0,37,-1.7128509700090871e-06,0.08499999999999999
P6,0,0,37,-7.471532459934111e-07,0.08499999999999999
P2,0,0,37,-1.597524811157651e-06,0.08499999999999999
P1,0,0,37,-9.516621127597984e-07,0.08499999999999999
P3,0,0,37,6.659741419226042e-08,0.08499999999999999
P5,0,0,37,1.0811521523018304e-06,0.08499999999999999
PO3,0,0,37,5.959142168961514e-07,0.08499999999999999
O1,0,0,37,7.771958309489107e-07,0.08499999999999999
Pz,0,0,37,-1.3834150113400241e-06,0.08499999999999999
POz,0,0,37,-2.2002524659987123e-07,0.08499999999999999
Oz,0,0,37,2.3387750106211323e-07,0.08499999999999999
Iz,0,0,37,5.78121501705874e-07,0.08499999999999999
O2,0,0,38,1.4199200307768587e-07,0.09
PO4,0,0,38,-4.606643828467178e-07,0.09
P4,0,0,38,-1.5003076691834015e-06,0.09
P6,0,0,38,-3.797858495012001e-07,0.09
P2,0,0,38,-1.6755365170671622e-06,0.09
P1,0,0,38,-1.170639369497509e-06,0.09
P3,0,0,38,-1.9706715699408058e-07,0.09
P5,0,0,38,1.0578585444939253e-06,0.09
PO3,0,0,38,3.3114029132151754e-07,0.09
O1,0,0,38,1.0539198193462313e-06,0.09
Pz,0,0,38,-1.5382995689451927e-06,0.09
POz,0,0,38,-4.537321361955883e-07,0.09
Oz,0,0,38,5.191248911894197e-07,0.09
Iz,0,0,38,1.3003140388055056e-06,0.09
O2,0,0,39,5.470793511933513e-07,0.095
PO4,0,0,39,-3.6253524172514375e-07,0.095
P4,0,0,39,-1.6840756800481487e-06,0.095
P6,0,0,39,-4.929854702601637e-07,0.095
P2,0,0,39,-1.8751635771990531e-06,0.095
P1,0,0,39,-1.4487077146962717e-06,0.095
P3,0,0,39,-2.829893478445801e-07,0.095
P5,0,0,39,1.069275242732999e-06,0.095
PO3,0,0,39,5.065464245940698e-07,0.095
O1,0,0,39,1.3524528734835006e-06,0.095
Pz,0,0,39,-1.8522343673159137e-06,0.095
POz,0,0,39,-1.6911974285105806e-07,0.095
Oz,0,0,39,1.092008758251268e-06,0.095
Iz,0,0,39,1.5343581518008351e-06,0.095
O2,0,0,40,1.1944288923123226e-06,0.1
PO4,0,0,40,7.460155996099795e-07,0.1
P4,0,0,40,-8.654231694044401e-07,0.1
P6,0,0,40,3.487764461816684e-07,0.1
P2,0,0,40,-1.2032036727031652e-06,0.1
P1,0,0,40,-1.0695712305173302e-06,0.1
P3,0,0,40,8.797510239651507e-08,0.1
P5,0,0,40,1.4476577661503075e-06,0.1
PO3,0,0,40,1.2713627821404598e-06,0.1
O1,0,0,40,1.6070138732848602e-06,0.1
Pz,0,0,40,-1.3217590700705934e-06,0.1
POz,0,0,40,9.70671685269883e-07,0.1
Oz,0,0,40,1.8305045057636235e-06,0.1
Iz,0,0,40,1.7883562183697395e-06,0.1
O2,0,0,41,1.5923590999244689e-06,0.10500000000000001
PO4,0,0,41,5.999673721688997e-07,0.10500000000000001
P4,0,0,41,-9.842222312132241e-07,0.10500000000000001
P6,0,0,41,1.943118158192613e-07,0.10500000000000001
P2,0,0,41,-1.3169105381699321e-06,0.10500000000000001
P1,0,0,41,-1.5330503934704801e-06,0.10500000000000001
P3,0,0,41,-4.115590071801208e-07,0.10500000000000001
P5,0,0,41,1.0919849176755108e-06,0.10500000000000001
PO3,0,0,41,7.166178264508637e-07,0.10500000000000001
O1,0,0,41,1.5747992684793373e-06,0.10500000000000001
Pz,0,0,41,-1.6363606794868458e-06,0.10500000000000001
POz,0,0,41,5.98018688905867e-07,0.10500000000000001
Oz,0,0,41,1.8459923390593476e-06,0.10500000000000001
Iz,0,0,41,2.286281855575439e-06,0.10500000000000001
O2,0,0,42,1.566100307226995e-06,0.10999999999999999
PO4,0,0,42,4.6115838078493747e-07,0.10999999999999999
P4,0,0,42,-1.4035666195250191e-06,0.10999999999999999
P6,0,0,42,-6.584433756531734e-08,0.10999999999999999
P2,0,0,42,-1.6882309687231255e-06,0.10999999999999999
P1,0,0,42,-1.948346651335463e-06,0.10999999999999999
P3,0,0,42,-1.1459268834811915e-06,0.10999999999999999
P5,0,0,42,5.342197359530126e-07,0.10999999999999999
PO3,0,0,42,2.8666222609541644e-07,0.10999999999999999
O1,0,0,42,1.6738725610958416e-06,0.10999999999999999
Pz,0,0,42,-1.971577918570416e-06,0.10999999999999999
POz,0,0,42,2.9790779500205675e-07,0.10999999999999999
Oz,0,0,42,1.9377183815598856e-06,0.10999999999999999
Iz,0,0,42,2.5624140583873606e-06,0.10999999999999999
O2,0,0,43,1.6840731246380257e-06,0.11499999999999999
PO4,0,0,43,1.3701670110963258e-07,0.11499999999999999
P4,0,0,43,-1.9551137699555993e-06,0.11499999999999999
P6,0,0,43,-7.607588967211517e-07,0.11499999999999999
P2,0,0,43,-2.340420041397693e-06,0.11499999999999999
P1,0,0,43,-2.397271870375021e-06,0.11499999999999999
P3,0,0,43,-1.5716881657567122e-06,0.11499999999999999
P5,0,0,43,1.388422859003121e-07,0.11499999999999999
PO3,0,0,43,-2.5795740148961444e-09,0.11499999999999999
O1,0,0,43,1.5217547327555058e-06,0.11499999999999999
Pz,0,0,43,-2.6118865678484018e-06,0.11499999999999999
POz,0,0,43,-1.6462318978730124e-07,0.11499999999999999
Oz,0,0,43,1.7921545379763185e-06,0.11499999999999999
Iz,0,0,43,2.651785231474791e-06,0.11499999999999999
O2,0,0,44,6.080678341914837e-07,0.12
PO4,0,0,44,-1.146072138547521e-06,0.12
P4,0,0,44,-2.5385043390931013e-06,0.12
P6,0,0,44,-1.1792185916244482e-06,0.12
P2,0,0,44,-3.0613980634840894e-06,0.12
P1,0,0,44,-3.751443648619946e-06,0.12
P3,0,0,44,-3.1441504421907433e-06,0.12
P5,0,0,44,-1.364046320464206e-06,0.12
PO3,0,0,44,-1.8593826464808124e-06,0.12
O1,0,0,44,-6.644481305625078e-08,0.12
Pz,0,0,44,-3.6608923919014036e-06,0.12
POz,0,0,44,-1.8801967778812777e-06,0.12
Oz,0,0,44,3.238727131346489e-07,0.12
Iz,0,0,44,1.720414190338691e-06,0.12
O2,0,0,45,-3.003831517623866e-07,0.125
PO4,0,0,45,-1.9601811947034787e-06,0.125
P4,0,0,45,-2.8166195259127985e-06,0.125
P6,0,0,45,-1.10726429716955e-06,0.125
P2,0,0,45,-3.6205851424594885e-06,0.125
P1,0,0,45,-4.769289915780081e-06,0.125
P3,0,0,45,-4.393255282869808e-06,0.125
P5,0,0,45,-2.7048797992672387e-06,0.125
PO3,0,0,45,-3.685104352267349e-06,0.125
O1,0,0,45,-1.616429657608536e-06,0.125
Pz,0,0,45,-4.574731514750095e-06,0.125
POz,0,0,45,-3.388529792887124e-06,0.125
Oz,0,0,45,-9.511495397438107e-07,0.125
Iz,0,0,45,1.1152412703019564e-06,0.125
O2,0,0,46,-7.290654803581979e-07,0.13
PO4,0,0,46,-2.5281555282742674e-06,0.13
P4,0,0,46,-2.850835017684767e-06,0.13
P6,0,0,46,-9.862700093290614e-07,0.13
P2,0,0,46,-3.793000386753023e-06,0.13
P1,0,0,46,-5.1558242928866125e-06,0.13
P3,0,0,46,-5.040357999816846e-06,0.13
P5,0,0,46,-3.368031311533262e-06,0.13
PO3,0,0,46,-4.5955676359806085e-06,0.13
O1,0,0,46,-1.971548877660861e-06,0.13
Pz,0,0,46,-4.869816924229499e-06,0.13
POz,0,0,46,-4.129270554291302e-06,0.13
Oz,0,0,46,-1.4987166622266603e-06,0.13
Iz,0,0,46,1.0028428687935566e-06,0.13
O2,0,0,47,-1.061391994455368e-06,0.135
PO4,0,0,47,-2.998976454201311e-06,0.135
P4,0,0,47,-3.1023353989916996e-06,0.135
P6,0,0,47,-7.129619771574082e-07,0.135
P2,0,0,47,-4.106498912895929e-06,0.135
P1,0,0,47,-5.770012992359516e-06,0.135
P3,0,0,47,-5.744330562543863e-06,0.135
P5,0,0,47,-4.082966838096614e-06,0.135
PO3,0,0,47,-5.416007283013377e-06,0.135
O1,0,0,47,-2.452143432604114e-06,0.135
Pz,0,0,47,-5.347021543880473e-06,0.135
POz,0,0,47,-4.987044774863337e-06,0.135
Oz,0,0,47,-1.933004872407151e-06,0.135
Iz,0,0,47,1.3105328572220404e-06,0.135
O2,0,0,48,-1.202131525868073e-06,0.13999999999999999
PO4,0,0,48,-4.022575655448634e-06,0.13999999999999999
P4,0,0,48,-4.018680327869863e-06,0.13999999999999999
P6,0,0,48,-1.2430764805442937e-06,0.13999999999999999
P2,0,0,48,-5.125470280886792e-06,0.13999999999999999
P1,0,0,48,-6.785202452494718e-06,0.13999999999999999
P3,0,0,48,-6.7488048639196305e-06,0.13999999999999999
P5,0,0,48,-4.788234196165063e-06,0.13999999999999999
PO3,0,0,48,-6.3915239230466785e-06,0.13999999999999999
O1,0,0,48,-2.8271856178360076e-06,0.13999999999999999
Pz,0,0,48,-6.246925996245082e-06,0.13999999999999999
POz,0,0,48,-6.096086451922844e-06,0.13999999999999999
Oz,0,0,48,-2.2383987633889113e-06,0.13999999999999999
Iz,0,0,48,1.6146760323134783e-06,0.13999999999999999
O2,0,0,49,-6.635498786436816e-07,0.145
PO4,0,0,49,-4.336729734590774e-06,0.145
P4,0,0,49,-4.585133507366603e-06,0.145
P6,0,0,49,-1.4691193565211836e-06,0.145
P2,0,0,49,-5.687710160203311e-06,0.145
P1,0,0,49,-7.116824733580737e-06,0.145
P3,0,0,49,-6.886433830225074e-06,0.145
P5,0,0,49,-4.66340921378163e-06,0.145
PO3,0,0,49,-6.353025053923125e-06,0.145
O1,0,0,49,-2.037579685910858e-06,0.145
Pz,0,0,49,-6.726958086777621e-06,0.145
POz,0,0,49,-6.351443782115579e-06,0.145
Oz,0,0,49,-1.6522827360244537e-06,0.145
Iz,0,0,49,2.616554039221772e-06,0.145
O2,0,0,50,-7.066523271672347e-07,0.15
PO4,0,0,50,-5.106432326138284e-06,0.15
P4,0,0,50,-5.7298884906585795e-06,0.15
P6,0,0,50,-2.3913476224082835e-06,0.15
P2,0,0,50,-6.870621264506477e-06,0.15
P1,0,0,50,-7.681806108055767e-06,0.15
P3,0,0,50,-7.29518863619632e-06,0.15
P5,0,0,50,-4.635436636939041e-06,0.15
PO3,0,0,50,-6.19266258238819e-06,0.15
O1,0,0,50,-1.4884998542186522e-06,0.15
Pz,0,0,50,-7.492257846754531e-06,0.15
POz,0,0,50,-6.932246965490292e-06,0.15
Oz,0,0,50,-1.4771173349465053e-06,0.15
Iz,0,0,50,3.2498344304653704e-06,0.15
O2,0,0,51,-1.8963759981961772e-07,0.155
PO4,0,0,51,-5.3527045115034116e-06,0.155
P4,0,0,51,-6.321221576473967e-06,0.155
P6,0,0,51,-3.0953774199046604e-06,0.155
P2,0,0,51,-7.399329597848049e-06,0.155
P1,0,0,51,-7.986702189267882e-06,0.155
P3,0,0,51,-7.37145983675038e-06,0.155
P5,0,0,51,-4.28929426838583e-06,0.155
PO3,0,0,51,-5.862831386885398e-06,0.155
O1,0,0,51,-8.636789363526427e-07,0.155
Pz,0,0,51,-7.879491497576588e-06,0.155
POz,0,0,51,-6.946068707295809e-06,0.155
Oz,0,0,51,-8.407374907997756e-07,0.155
Iz,0,0,51,4.264547326826403e-06,0.155
O2,0,0,52,2.584250624531399e-07,0.16
PO4,0,0,52,-5.270843513932593e-06,0.16
P4,0,0,52,-6.602005004130747e-06,0.16
P6,0,0,52,-3.5356676748399837e-06,0.16
P2,0,0,52,-7.57118432359119e-06,0.16
P1,0,0,52,-7.970512750427624e-06,0.16
P3,0,0,52,-7.5121472432828895e-06,0.16
P5,0,0,52,-4.426529323611362e-06,0.16
PO3,0,0,52,-5.562163311392676e-06,0.16
O1,0,0,52,-1.7482943809408467e-07,0.16
Pz,0,0,52,-7.870323084764037e-06,0.16
POz,0,0,52,-6.51964663859376e-06,0.16
Oz,0,0,52,-6.403450882944958e-08,0.16
Iz,0,0,52,5.132670623250001e-06,0.16
O2,0,0,53,3.872196066813081e-07,0.165
PO4,0,0,53,-5.229028093458606e-06,0.165
P4,0,0,53,-6.702885191621445e-06,0.165
P6,0,0,53,-3.784028947796803e-06,0.165
P2,0,0,53,-7.514952757147951e-06,0.165
P1,0,0,53,-7.735754203385359e-06,0.165
P3,0,0,53,-7.312849070590772e-06,0.165
P5,0,0,53,-4.278670384798806e-06,0.165
PO3,0,0,53,-5.030890485249357e-06,0.165
O1,0,0,53,1.5207853631992551e-07,0.165
Pz,0,0,53,-7.59823746023685e-06,0.165
POz,0,0,53,-6.166737779947954e-06,0.165
Oz,0,0,53,1.9297710889212598e-07,0.165
Iz,0,0,53,5.0779923303117745e-06,0.165
O2,0,0,54,-3.201461311318919e-08,0.17
PO4,0,0,54,-5.567867291234468e-06,0.17
P4,0,0,54,-7.137558995456995e-06,0.17
P6,0,0,54,-4.674854033360828e-06,0.17
P2,0,0,54,-7.685557245178112e-06,0.17
P1,0,0,54,-7.450983257364767e-06,0.17
P3,0,0,54,-6.9524637395915185e-06,0.17
P5,0,0,54,-4.331971943013975e-06,0.17
PO3,0,0,54,-4.708571024409919e-06,0.17
O1,0,0,54,2.5227622949930365e-07,0.17
Pz,0,0,54,-7.5794151045407615e-06,0.17
POz,0,0,54,-6.084949018554304e-06,0.17
Oz,0,0,54,1.0268792370016508e-07,0.17
Iz,0,0,54,4.6703734606392525e-06,0.17
O2,0,0,55,-1.88402163694915e-07,0.17500000000000002
PO4,0,0,55,-5.661970259334562e-06,0.17500000000000002
P4,0,0,55,-7.497468323570037e-06,0.17500000000000002
P6,0,0,55,-5.1543494255311404e-06,0.17500000000000002
P2,0,0,55,-7.930843016774857e-06,0.17500000000000002
P1,0,0,55,-7.066032184801631e-06,0.17500000000000002
P3,0,0,55,-6.4154342871084465e-06,0.17500000000000002
P5,0,0,55,-3.6212393603521974e-06,0.17500000000000002
PO3,0,0,55,-4.295816910210577e-06,0.17500000000000002
O1,0,0,55,5.327999980980987e-07,0.17500000000000002
Pz,0,0,55,-7.429590241123034e-06,0.17500000000000002
POz,0,0,55,-5.729191632480153e-06,0.17500000000000002
Oz,0,0,55,3.169834782506741e-07,0.17500000000000002
Iz,0,0,55,4.644537179213244e-06,0.17500000000000002
O2,0,0,56,-9.442832924811866e-07,0.18000000000000002
PO4,0,0,56,-5.772255411200528e-06,0.18000000000000002
P4,0,0,56,-7.534283023617157e-06,0.18000000000000002
P6,0,0,56,-5.304737348157835e-06,0.18000000000000002
P2,0,0,56,-7.818539427462088e-06,0.18000000000000002
P1,0,0,56,-6.813177599835561e-06,0.18000000000000002
P3,0,0,56,-5.869977788280622e-06,0.18000000000000002
P5,0,0,56,-3.345146881399119e-06,0.18000000000000002
PO3,0,0,56,-4.109947914969191e-06,0.18000000000000002
O1,0,0,56,1.7002490845434985e-07,0.18000000000000002
Pz,0,0,56,-7.2214525881364364e-06,0.18000000000000002
POz,0,0,56,-5.576100382143641e-06,0.18000000000000002
Oz,0,0,56,-4.587238809377422e-08,0.18000000000000002
Iz,0,0,56,3.6890959780877077e-06,0.18000000000000002
O2,0,0,57,-1.643995368252046e-06,0.18500000000000003
PO4,0,0,57,-5.830738318015372e-06,0.18500000000000003
P4,0,0,57,-7.464159469850824e-06,0.18500000000000003
P6,0,0,57,-5.182540965494653e-06,0.18500000000000003
P2,0,0,57,-7.557872013781395e-06,0.18500000000000003
P1,0,0,57,-6.225284481864491e-06,0.18500000000000003
P3,0,0,57,-5.133522848051854e-06,0.18500000000000003
P5,0,0,57,-2.8146815140003354e-06,0.18500000000000003
PO3,0,0,57,-3.644629587899419e-06,0.18500000000000003
O1,0,0,57,-2.0679506123266862e-07,0.18500000000000003
Pz,0,0,57,-6.922757453958205e-06,0.18500000000000003
POz,0,0,57,-5.343976892476772e-06,0.18500000000000003
Oz,0,0,57,-5.643067012110808e-07,0.18500000000000003
Iz,0,0,57,2.7365061256150828e-06,0.18500000000000003
O2,0,0,58,-1.98579807786188e-06,0.18999999999999997
PO4,0,0,58,-5.5186751417108586e-06,0.18999999999999997
P4,0,0,58,-6.812001718133539e-06,0.18999999999999997
P6,0,0,58,-4.764068381155021e-06,0.18999999999999997
P2,0,0,58,-7.028259015627757e-06,0.18999999999999997
P1,0,0,58,-5.962002759664126e-06,0.18999999999999997
P3,0,0,58,-4.918276666181269e-06,0.18999999999999997
P5,0,0,58,-2.737701984838356e-06,0.18999999999999997
PO3,0,0,58,-3.6471675565410605e-06,0.18999999999999997
O1,0,0,58,-6.185312755847264e-07,0.18999999999999997
Pz,0,0,58,-6.633187207790009e-06,0.18999999999999997
POz,0,0,58,-5.019724432256572e-06,0.18999999999999997
Oz,0,0,58,-8.861839560572994e-07,0.18999999999999997
Iz,0,0,58,2.3591849351289687e-06,0.18999999999999997
O2,0,0,59,-2.1201311078176834e-06,0.19499999999999998
PO4,0,0,59,-4.828733674490085e-06,0.19499999999999998
P4,0,0,59,-5.778954118434477e-06,0.19499999999999998
P6,0,0,59,-4.004620756194439e-06,0.19499999999999998
P2,0,0,59,-6.0944213311509735e-06,0.19499999999999998
P1,0,0,59,-5.079068364920925e-06,0.19499999999999998
P3,0,0,59,-4.134402886402818e-06,0.19499999999999998
P5,0,0,59,-2.1315162301316315e-06,0.19499999999999998
PO3,0,0,59,-3.231576154071679e-06,0.19499999999999998
O1,0,0,59,-6.379643093542199e-07,0.19499999999999998
Pz,0,0,59,-5.777529621333116e-06,0.19499999999999998
POz,0,0,59,-4.362860370522505e-06,0.19499999999999998
Oz,0,0,59,-9.474867820344408e-07,0.19499999999999998
Iz,0,0,59,1.6314347852232102e-06,0.19499999999999998
O2,0,0,60,-2.2318289202961674e-06,0.19999999999999998
PO4,0,0,60,-4.5997807724277895e-06,0.19999999999999998
P4,0,0,60,-5.3316101183251755e-06,0.19999999999999998
P6,0,0,60,-3.8647778401841855e-06,0.19999999999999998
P2,0,0,60,-5.497180140839519e-06,0.19999999999999998
P1,0,0,60,-4.642602900639068e-06,0.19999999999999998
P3,0,0,60,-3.775612393009886e-06,0.19999999999999998
P5,0,0,60,-1.99293384767327e-06,0.19999999999999998
PO3,0,0,60,-3.274535580184595e-06,0.19999999999999998
O1,0,0,60,-1.2260245036865325e-06,0.19999999999999998
Pz,0,0,60,-5.281041332790756e-06,0.19999999999999998
POz,0,0,60,-4.1618561115066846e-06,0.19999999999999998
Oz,0,0,60,-1.329734296096848e-06,0.19999999999999998
Iz,0,0,60,1.0635209949463202e-06,0.19999999999999998
O2,0,0,61,-2.5327429045562123e-06,0.205
PO4,0,0,61,-4.471118059865861e-06,0.205
P4,0,0,61,-5.1563732998468094e-06,0.205
P6,0,0,61,-3.911641314950465e-06,0.205
P2,0,0,61,-5.1965617486461685e-06,0.205
P1,0,0,61,-4.269779272149791e-06,0.205
P3,0,0,61,-3.463893465524532e-06,0.205
P5,0,0,61,-1.9919650884605167e-06,0.205
PO3,0,0,61,-3.112008419029795e-06,0.205
O1,0,0,61,-1.1252582449943612e-06,0.205
Pz,0,0,61,-4.824191114572938e-06,0.205
POz,0,0,61,-3.886045790270312e-06,0.205
Oz,0,0,61,-1.6504412397364656e-06,0.205
Iz,0,0,61,4.839579965155076e-07,0.205
O2,0,0,62,-2.8583672247927755e-06,0.21
PO4,0,0,62,-4.269120549922372e-06,0.21
P4,0,0,62,-4.769722310588464e-06,0.21
P6,0,0,62,-3.535249787974481e-06,0.21
P2,0,0,62,-4.976628273126235e-06,0.21
P1,0,0,62,-4.122092328513262e-06,0.21
P3,0,0,62,-3.4542065244807317e-06,0.21
P5,0,0,62,-2.1931483962861934e-06,0.21
PO3,0,0,62,-3.3570102828384614e-06,0.21
O1,0,0,62,-1.5492250009115142e-06,0.21
Pz,0,0,62,-4.824802293656081e-06,0.21
POz,0,0,62,-3.9774392152447644e-06,0.21
Oz,0,0,62,-2.0131494280849693e-06,0.21
Iz,0,0,62,-8.214716864345058e-08,0.21
O2,0,0,63,-2.955014485256745e-06,0.215
PO4,0,0,63,-4.3768635767495975e-06,0.215
P4,0,0,63,-4.907502954839411e-06,0.215
P6,0,0,63,-3.5696482340473046e-06,0.215
P2,0,0,63,-5.04625492363424e-06,0.215
P1,0,0,63,-4.013956107063431e-06,0.215
P3,0,0,63,-3.233388397297384e-06,0.215
P5,0,0,63,-1.997216719508208e-06,0.215
PO3,0,0,63,-3.3482001438786923e-06,0.215
O1,0,0,63,-1.968758076312126e-06,0.215
Pz,0,0,63,-4.7862394643367905e-06,0.215
POz,0,0,63,-3.971733821050067e-06,0.215
Oz,0,0,63,-2.2041287874561553e-06,0.215
Iz,0,0,63,-5.342482691481446e-07,0.215
O2,0,0,64,-2.9824696432707265e-06,0.22
PO4,0,0,64,-4.6184389688144624e-06,0.22
P4,0,0,64,-5.584462293072553e-06,0.22
P6,0,0,64,-4.165963397810926e-06,0.22
P2,0,0,64,-5.58909963407259e-06,0.22
P1,0,0,64,-4.101198258720747e-06,0.22
P3,0,0,64,-3.1588363443615758e-06,0.22
P5,0,0,64,-1.793870007425617e-06,0.22
PO3,0,0,64,-3.196288687207861e-06,0.22
O1,0,0,64,-1.7309109179647141e-06,0.22
Pz,0,0,64,-5.006370595029246e-06,0.22
POz,0,0,64,-4.069577788397385e-06,0.22
Oz,0,0,64,-2.203387228017561e-06,0.22
Iz,0,0,64,-4.708751239388011e-07,0.22
O2,0,0,65,-2.9292148640673014e-06,0.225
PO4,0,0,65,-4.979763923073335e-06,0.225
P4,0,0,65,-6.148135391434835e-06,0.225
P6,0,0,65,-4.533851134891445e-06,0.225
P2,0,0,65,-6.15322462757092e-06,0.225
P1,0,0,65,-4.179253781272281e-06,0.225
P3,0,0,65,-3.3472195331781094e-06,0.225
P5,0,0,65,-1.854049175533272e-06,0.225
PO3,0,0,65,-3.399329946031666e-06,0.225
O1,0,0,65,-2.035597369516269e-06,0.225
Pz,0,0,65,-5.397343483221461e-06,0.225
POz,0,0,65,-4.344779949925872e-06,0.225
Oz,0,0,65,-2.394584947235728e-06,0.225
Iz,0,0,65,-5.929822664323575e-07,0.225
O2,0,0,66,-2.2404060858336483e-06,0.23
PO4,0,0,66,-4.650576694516462e-06,0.23
P4,0,0,66,-6.184080033992914e-06,0.23
P6,0,0,66,-4.674404727525141e-06,0.23
P2,0,0,66,-6.168324660481148e-06,0.23
P1,0,0,66,-4.280073126795626e-06,0.23
P3,0,0,66,-3.3758760528126173e-06,0.23
P5,0,0,66,-1.73405347286731e-06,0.23
PO3,0,0,66,-3.17396257856142e-06,0.23
O1,0,0,66,-1.370771198276093e-06,0.23
Pz,0,0,66,-5.397344412671939e-06,0.23
POz,0,0,66,-4.16082126588166e-06,0.23
Oz,0,0,66,-1.5813801516272308e-06,0.23
Iz,0,0,66,1.2556970554859187e-07,0.23
O2,0,0,67,-2.0798863431889357e-06,0.23500000000000001
PO4,0,0,67,-4.552618284955035e-06,0.23500000000000001
P4,0,0,67,-6.278196635207461e-06,0.23500000000000001
P6,0,0,67,-4.953300746571565e-06,0.23500000000000001
P2,0,0,67,-6.273813014602328e-06,0.23500000000000001
P1,0,0,67,-4.39791560203554e-06,0.23500000000000001
P3,0,0,67,-3.5524956654115133e-06,0.23500000000000001
P5,0,0,67,-2.0319212722603128e-06,0.23500000000000001
PO3,0,0,67,-3.103503873652027e-06,0.23500000000000001
O1,0,0,67,-1.251624732035942e-06,0.23500000000000001
Pz,0,0,67,-5.409724993066707e-06,0.23500000000000001
POz,0,0,67,-3.9243864831456095e-06,0.23500000000000001
Oz,0,0,67,-1.266907266853065e-06,0.23500000000000001
Iz,0,0,67,3.8240441120568014e-07,0.23500000000000001
O2,0,0,68,-1.9109619145357434e-06,0.24000000000000002
PO4,0,0,68,-4.594609007295061e-06,0.24000000000000002
P4,0,0,68,-6.392147402256707e-06,0.24000000000000002
P6,0,0,68,-4.961894944597806e-06,0.24000000000000002
P2,0,0,68,-6.494225821914131e-06,0.24000000000000002
P1,0,0,68,-4.5316686442505485e-06,0.24000000000000002
P3,0,0,68,-3.6315814141006265e-06,0.24000000000000002
P5,0,0,68,-1.9127780051047817e-06,0.24000000000000002
PO3,0,0,68,-2.8355306876263366e-06,0.24000000000000002
O1,0,0,68,-9.59451273418148e-07,0.24000000000000002
Pz,0,0,68,-5.721265085828983e-06,0.24000000000000002
POz,0,0,68,-3.81122651546886e-06,0.24000000000000002
Oz,0,0,68,-1.1254319000306344e-06,0.24000000000000002
Iz,0,0,68,2.9183257947741696e-07,0.24000000000000002
O2,0,0,69,-1.303246424199688e-06,0.24500000000000002
PO4,0,0,69,-4.341679272442463e-06,0.24500000000000002
P4,0,0,69,-6.43796439831995e-06,0.24500000000000002
P6,0,0,69,-4.890130673709252e-06,0.24500000000000002
P2,0,0,69,-6.541080156888251e-06,0.24500000000000002
P1,0,0,69,-4.8630902595536415e-06,0.24500000000000002
P3,0,0,69,-3.6813116894370052e-06,0.24500000000000002
P5,0,0,69,-1.8157996349693079e-06,0.24500000000000002
PO3,0,0,69,-2.6381907062656884e-06,0.24500000000000002
O1,0,0,69,-4.6114094223934243e-07,0.24500000000000002
Pz,0,0,69,-5.862569401864664e-06,0.24500000000000002
POz,0,0,69,-3.594183733224741e-06,0.24500000000000002
Oz,0,0,69,-4.77865926092813e-07,0.24500000000000002
Iz,0,0,69,9.250685204229857e-07,0.24500000000000002
O2,0,0,70,-1.1551791435293863e-06,0.25
PO4,0,0,70,-3.986689726405616e-06,0.25
P4,0,0,70,-6.215291850298284e-06,0.25
P6,0,0,70,-4.782541217402857e-06,0.25
P2,0,0,70,-6.4525028648927734e-06,0.25
P1,0,0,70,-4.742637156890422e-06,0.25
P3,0,0,70,-3.777372825827974e-06,0.25
P5,0,0,70,-1.8307501840710066e-06,0.25
PO3,0,0,70,-2.1966676833988804e-06,0.25
O1,0,0,70,-4.1722453314506064e-07,0.25
Pz,0,0,70,-5.926890449910681e-06,0.25
POz,0,0,70,-3.0362517211293908e-06,0.25
Oz,0,0,70,-1.4945365863808656e-07,0.25
Iz,0,0,70,9.594587638136657e-07,0.25
O2,0,0,71,-7.994938674996771e-07,0.255
PO4,0,0,71,-3.669623466949694e-06,0.255
P4,0,0,71,-6.10307438730355e-06,0.255
P6,0,0,71,-4.6633808061709034e-06,0.255
P2,0,0,71,-6.370668424853458e-06,0.255
P1,0,0,71,-4.544921407587761e-06,0.255
P3,0,0,71,-3.1000165229375973e-06,0.255
P5,0,0,71,-1.1036519866730202e-06,0.255
PO3,0,0,71,-1.6434539128528062e-06,0.255
O1,0,0,71,-1.3951981087101278e-08,0.255
Pz,0,0,71,-5.624850867329703e-06,0.255
POz,0,0,71,-2.847347664220683e-06,0.255
Oz,0,0,71,2.5051113918701057e-07,0.255
Iz,0,0,71,8.129861273352813e-07,0.255
O2,0,0,72,-1.0994086378033232e-06,0.26
PO4,0,0,72,-4.421763026702659e-06,0.26
P4,0,0,72,-6.923054789925176e-06,0.26
P6,0,0,72,-5.281998431898082e-06,0.26
P2,0,0,72,-7.1790781066227695e-06,0.26
P1,0,0,72,-5.006777893824291e-06,0.26
P3,0,0,72,-3.318256353021966e-06,0.26
P5,0,0,72,-9.839356224336538e-07,0.26
PO3,0,0,72,-2.1621941346265205e-06,0.26
O1,0,0,72,-1.0457018443885818e-07,0.26
Pz,0,0,72,-6.433872062387818e-06,0.26
POz,0,0,72,-3.6424064958927215e-06,0.26
Oz,0,0,72,-1.9584991843806984e-07,0.26
Iz,0,0,72,1.1433861197661206e-06,0.26
O2,0,0,73,-9.537253614734553e-07,0.265
PO4,0,0,73,-4.434128814991515e-06,0.265
P4,0,0,73,-7.08019359020306e-06,0.265
P6,0,0,73,-5.431626878998465e-06,0.265
P2,0,0,73,-7.236512839898864e-06,0.265
P1,0,0,73,-4.923121777672388e-06,0.265
P3,0,0,73,-3.1846475803160002e-06,0.265
P5,0,0,73,-8.745193942584836e-07,0.265
PO3,0,0,73,-1.9069289523664545e-06,0.265
O1,0,0,73,-1.6506833266639528e-07,0.265
Pz,0,0,73,-6.397346093838279e-06,0.265
POz,0,0,73,-3.395241477954429e-06,0.265
Oz,0,0,73,5.76592711824185e-08,0.265
Iz,0,0,73,1.301436920693134e-06,0.265
O2,0,0,74,-3.8546616635697196e-07,0.27
PO4,0,0,74,-4.2704099089317165e-06,0.27
P4,0,0,74,-6.987318512603159e-06,0.27
P6,0,0,74,-5.228629836289056e-06,0.27
P2,0,0,74,-7.1114174776758315e-06,0.27
P1,0,0,74,-4.638228866892242e-06,0.27
P3,0,0,74,-2.6951657489742254e-06,0.27
P5,0,0,74,-2.415876244538671e-07,0.27
PO3,0,0,74,-1.196659978851457e-06,0.27
O1,0,0,74,9.304263406384009e-07,0.27
Pz,0,0,74,-6.2324975727885344e-06,0.27
POz,0,0,74,-3.110266530775327e-06,0.27
Oz,0,0,74,5.704772404263742e-07,0.27
Iz,0,0,74,2.100791330573962e-06,0.27
O2,0,0,75,-7.487606603277574e-07,0.275
PO4,0,0,75,-4.645500590634458e-06,0.275
P4,0,0,75,-7.125310186072432e-06,0.275
P6,0,0,75,-5.23772935465676e-06,0.275
P2,0,0,75,-7.296188712125072e-06,0.275
P1,0,0,75,-4.801599939604602e-06,0.275
P3,0,0,75,-2.726504276485281e-06,0.275
P5,0,0,75,-2.1507060280542597e-07,0.275
PO3,0,0,75,-1.869030060503147e-06,0.275
O1,0,0,75,7.153163332785144e-07,0.275
Pz,0,0,75,-6.5624106288863286e-06,0.275
POz,0,0,75,-3.850720000853333e-06,0.275
Oz,0,0,75,1.2856392842211436e-07,0.275
Iz,0,0,75,2.066941880946989e-06,0.275
O2,0,0,76,-1.0322425913504964e-06,0.28
PO4,0,0,76,-4.599696320622502e-06,0.28
P4,0,0,76,-6.775757333837357e-06,0.28
P6,0,0,76,-4.882920810220897e-06,0.28
P2,0,0,76,-6.984898178747993e-06,0.28
P1,0,0,76,-4.63746106952379e-06,0.28
P3,0,0,76,-2.726429595217804e-06,0.28
P5,0,0,76,-4.7230373711153356e-07,0.28
PO3,0,0,76,-2.0066990233546965e-06,0.28
O1,0,0,76,2.2994080414904925e-07,0.28
Pz,0,0,76,-6.312846610167142e-06,0.28
POz,0,0,76,-3.875136409536879e-06,0.28
Oz,0,0,76,-2.0023065722873703e-07,0.28
Iz,0,0,76,1.662964073347264e-06,0.28
O2,0,0,77,-1.1319012765734516e-06,0.28500000000000003
PO4,0,0,77,-4.432917709332318e-06,0.28500000000000003
P4,0,0,77,-6.418851722043966e-06,0.28500000000000003
P6,0,0,77,-4.655797342593874e-06,0.28500000000000003
P2,0,0,77,-6.704893207249566e-06,0.28500000000000003
P1,0,0,77,-4.329110168398707e-06,0.28500000000000003
P3,0,0,77,-2.412938693526297e-06,0.28500000000000003
P5,0,0,77,-3.171442244338326e-07,0.28500000000000003
PO3,0,0,77,-1.6488975004680527e-06,0.28500000000000003
O1,0,0,77,4.1866787715951444e-08,0.28500000000000003
Pz,0,0,77,-5.937677625865705e-06,0.28500000000000003
POz,0,0,77,-3.735692987587398e-06,0.28500000000000003
Oz,0,0,77,-5.197215649745805e-07,0.28500000000000003
Iz,0,0,77,9.814289757562638e-07,0.28500000000000003
O2,0,0,78,-1.5670162594501165e-06,0.29000000000000004
PO4,0,0,78,-4.4472233619823065e-06,0.29000000000000004
P4,0,0,78,-6.108470155421844e-06,0.29000000000000004
P6,0,0,78,-4.341818320525376e-06,0.29000000000000004
P2,0,0,78,-6.374369982093552e-06,0.29000000000000004
P1,0,0,78,-4.248433788304924e-06,0.29000000000000004
P3,0,0,78,-2.5311593589574617e-06,0.29000000000000004
P5,0,0,78,-6.165675032898366e-07,0.29000000000000004
PO3,0,0,78,-2.1508529021468815e-06,0.29000000000000004
O1,0,0,78,-4.7040551859131146e-07,0.29000000000000004
Pz,0,0,78,-5.741806374762982e-06,0.29000000000000004
POz,0,0,78,-4.140273619652926e-06,0.29000000000000004
Oz,0,0,78,-1.0012709401287461e-06,0.29000000000000004
Iz,0,0,78,5.274902503226062e-07,0.29000000000000004
O2,0,0,79,-1.7965854049871227e-06,0.29500000000000004
PO4,0,0,79,-4.394367102148811e-06,0.29500000000000004
P4,0,0,79,-6.113328907791335e-06,0.29500000000000004
P6,0,0,79,-4.410257362421043e-06,0.29500000000000004
P2,0,0,79,-6.2613148805433e-06,0.29500000000000004
P1,0,0,79,-4.406439662012274e-06,0.29500000000000004
P3,0,0,79,-3.0135484735813255e-06,0.29500000000000004
P5,0,0,79,-1.379010171880109e-06,0.29500000000000004
PO3,0,0,79,-2.9228561701977822e-06,0.29500000000000004
O1,0,0,79,-1.420228127794249e-06,0.29500000000000004
Pz,0,0,79,-5.703653670540002e-06,0.29500000000000004
POz,0,0,79,-4.357851750507257e-06,0.29500000000000004
Oz,0,0,79,-1.6348932004771175e-06,0.29500000000000004
Iz,0,0,79,-1.0612343185572967e-08,0.29500000000000004
O2,0,0,80,-1.878931022420488e-06,0.30000000000000004
PO4,0,0,80,-4.069721785646676e-06,0.30000000000000004
P4,0,0,80,-5.775659406893346e-06,0.30000000000000004
P6,0,0,80,-4.366550661849658e-06,0.30000000000000004
P2,0,0,80,-5.846617150618677e-06,0.30000000000000004
P1,0,0,80,-4.055658937625133e-06,0.30000000000000004
P3,0,0,80,-3.0045972623362984e-06,0.30000000000000004
P5,0,0,80,-1.8699006936950995e-06,0.30000000000000004
PO3,0,0,80,-2.8004341149144777e-06,0.30000000000000004
O1,0,0,80,-1.5939647535883286e-06,0.30000000000000004
Pz,0,0,80,-5.29813819534295e-06,0.30000000000000004
POz,0,0,80,-3.903992936943736e-06,0.30000000000000004
Oz,0,0,80,-1.5664436612061924e-06,0.30000000000000004
Iz,0,0,80,-2.01256755700092e-07,0.30000000000000004
O2,0,0,81,-1.7982969285345319e-06,0.30500000000000005
PO4,0,0,81,-3.8085759128515583e-06,0.30500000000000005
P4,0,0,81,-5.362267142696458e-06,0.30500000000000005
P6,0,0,81,-3.986281077254571e-06,0.30500000000000005
P2,0,0,81,-5.572501011677045e-06,0.30500000000000005
P1,0,0,81,-3.859631569636466e-06,0.30500000000000005
P3,0,0,81,-2.9966838717757162e-06,0.30500000000000005
P5,0,0,81,-2.050872514305605e-06,0.30500000000000005
PO3,0,0,81,-3.0051889468732486e-06,0.30500000000000005
O1,0,0,81,-1.5462843199151896e-06,0.30500000000000005
Pz,0,0,81,-5.11206975047275e-06,0.30500000000000005
POz,0,0,81,-3.953004242997077e-06,0.30500000000000005
Oz,0,0,81,-1.7557707186191102e-06,0.30500000000000005
Iz,0,0,81,-5.124753737398092e-07,0.30500000000000005
O2,0,0,82,-1.3674955082611092e-06,0.31000000000000005
PO4,0,0,82,-3.632802472203153e-06,0.31000000000000005
P4,0,0,82,-5.247711006518343e-06,0.31000000000000005
P6,0,0,82,-3.784175730808906e-06,0.31000000000000005
P2,0,0,82,-5.372959859701434e-06,0.31000000000000005
P1,0,0,82,-3.823220232420774e-06,0.31000000000000005
P3,0,0,82,-3.034246532449195e-06,0.31000000000000005
P5,0,0,82,-1.7700664246545038e-06,0.31000000000000005
PO3,0,0,82,-2.9216813021485764e-06,0.31000000000000005
O1,0,0,82,-1.461550298634211e-06,0.31000000000000005
Pz,0,0,82,-4.951517930485607e-06,0.31000000000000005
POz,0,0,82,-3.782987903465329e-06,0.31000000000000005
Oz,0,0,82,-1.4322758471987755e-06,0.31000000000000005
Iz,0,0,82,-3.8212829852967015e-07,0.31000000000000005
O2,0,0,83,-9.838016721649958e-07,0.31500000000000006
PO4,0,0,83,-2.8466113749302242e-06,0.31500000000000006
P4,0,0,83,-4.778518866840548e-06,0.31500000000000006
P6,0,0,83,-3.271104323815456e-06,0.31500000000000006
P2,0,0,83,-4.935547566363005e-06,0.31500000000000006
P1,0,0,83,-3.4133491184237296e-06,0.31500000000000006
P3,0,0,83,-2.6376567130076357e-06,0.31500000000000006
P5,0,0,83,-1.6161416094256899e-06,0.31500000000000006
PO3,0,0,83,-2.212437099438704e-06,0.31500000000000006
O1,0,0,83,-9.90759382974771e-07,0.31500000000000006
Pz,0,0,83,-4.565506308489279e-06,0.31500000000000006
POz,0,0,83,-2.8117069417738025e-06,0.31500000000000006
Oz,0,0,83,-8.734682476013147e-07,0.31500000000000006
Iz,0,0,83,-1.4146618101104907e-07,0.31500000000000006
O2,0,0,84,-5.874136754319267e-07,0.31999999999999995
PO4,0,0,84,-2.6179058971208683e-06,0.31999999999999995
P4,0,0,84,-4.8130900054381055e-06,0.31999999999999995
P6,0,0,84,-3.2540198976045653e-06,0.31999999999999995
P2,0,0,84,-4.841791649714949e-06,0.31999999999999995
P1,0,0,84,-3.357223668223469e-06,0.31999999999999995
P3,0,0,84,-2.4866565076427952e-06,0.31999999999999995
P5,0,0,84,-1.4830239082761771e-06,0.31999999999999995
PO3,0,0,84,-1.9657938110015285e-06,0.31999999999999995
O1,0,0,84,-6.537399029929634e-07,0.31999999999999995
Pz,0,0,84,-4.33274980738163e-06,0.31999999999999995
POz,0,0,84,-2.644263274267168e-06,0.31999999999999995
Oz,0,0,84,-5.534768795361495e-07,0.31999999999999995
Iz,0,0,84,1.6107939083131582e-07,0.31999999999999995
O2,0,0,85,-5.182571764349217e-07,0.32499999999999996
PO4,0,0,85,-3.0340780841191614e-06,0.32499999999999996
P4,0,0,85,-5.1544256626498685e-06,0.32499999999999996
P6,0,0,85,-3.7806017044359464e-06,0.32499999999999996
P2,0,0,85,-5.406344040861594e-06,0.32499999999999996
P1,0,0,85,-3.620399613600826e-06,0.32499999999999996
P3,0,0,85,-2.6949722710455055e-06,0.32499999999999996
P5,0,0,85,-1.5188797228348097e-06,0.32499999999999996
PO3,0,0,85,-2.2140235515370937e-06,0.32499999999999996
O1,0,0,85,-6.694703109432773e-07,0.32499999999999996
Pz,0,0,85,-4.754536227441644e-06,0.32499999999999996
POz,0,0,85,-3.0426018570891326e-06,0.32499999999999996
Oz,0,0,85,-6.495532522820467e-07,0.32499999999999996
Iz,0,0,85,2.0824614956048907e-07,0.32499999999999996
O2,0,0,86,-1.2505489280531944e-07,0.32999999999999996
PO4,0,0,86,-2.4257468733314567e-06,0.32999999999999996
P4,0,0,86,-5.027161473485379e-06,0.32999999999999996
P6,0,0,86,-3.3896061257125608e-06,0.32999999999999996
P2,0,0,86,-5.055730212802778e-06,0.32999999999999996
P1,0,0,86,-3.398836020865262e-06,0.32999999999999996
P3,0,0,86,-2.6937186646056413e-06,0.32999999999999996
P5,0,0,86,-1.6067292838187669e-06,0.32999999999999996
PO3,0,0,86,-1.8812645863621612e-06,0.32999999999999996
O1,0,0,86,-4.604995914680539e-07,0.32999999999999996
Pz,0,0,86,-4.373169647898951e-06,0.32999999999999996
POz,0,0,86,-2.3294771329991244e-06,0.32999999999999996
Oz,0,0,86,2.2605926815767453e-08,0.32999999999999996
Iz,0,0,86,6.065910105205286e-07,0.32999999999999996
O2,0,0,87,2.712141364373389e-07,0.33499999999999996
PO4,0,0,87,-2.2823081192404287e-06,0.33499999999999996
P4,0,0,87,-4.65927220899475e-06,0.33499999999999996
P6,0,0,87,-3.1812225988743592e-06,0.33499999999999996
P2,0,0,87,-4.794529299458318e-06,0.33499999999999996
P1,0,0,87,-3.3119085068308764e-06,0.33499999999999996
P3,0,0,87,-2.595165683834132e-06,0.33499999999999996
P5,0,0,87,-1.7017822870474065e-06,0.33499999999999996
PO3,0,0,87,-1.5841163910757381e-06,0.33499999999999996
O1,0,0,87,-1.2820926589796005e-07,0.33499999999999996
Pz,0,0,87,-4.089495398537451e-06,0.33499999999999996
POz,0,0,87,-1.9968477053247218e-06,0.33499999999999996
Oz,0,0,87,4.448653546474052e-07,0.33499999999999996
Iz,0,0,87,9.119816733929243e-07,0.33499999999999996
O2,0,0,88,2.25950230414972e-07,0.33999999999999997
PO4,0,0,88,-2.3008196627800937e-06,0.33999999999999997
P4,0,0,88,-4.711574701990636e-06,0.33999999999999997
P6,0,0,88,-3.2105231750591393e-06,0.33999999999999997
P2,0,0,88,-4.917590964388235e-06,0.33999999999999997
P1,0,0,88,-3.5045730591671764e-06,0.33999999999999997
P3,0,0,88,-2.796074023258277e-06,0.33999999999999997
P5,0,0,88,-1.689921399111615e-06,0.33999999999999997
PO3,0,0,88,-2.008418169325298e-06,0.33999999999999997
O1,0,0,88,-2.456397851861415e-07,0.33999999999999997
Pz,0,0,88,-4.410279981213827e-06,0.33999999999999997
POz,0,0,88,-2.3236850909026587e-06,0.33999999999999997
Oz,0,0,88,3.293790518036292e-07,0.33999999999999997
Iz,0,0,88,1.0694948144826433e-06,0.33999999999999997
O2,0,0,89,-2.1649393580955275e-07,0.345
PO4,0,0,89,-2.403644649487091e-06,0.345
P4,0,0,89,-4.770550508751247e-06,0.345
P6,0,0,89,-3.2947829070765325e-06,0.345
P2,0,0,89,-4.8653066739380625e-06,0.345
P1,0,0,89,-3.7303181544362043e-06,0.345
P3,0,0,89,-3.083756786283019e-06,0.345
P5,0,0,89,-1.8796953399360562e-06,0.345
PO3,0,0,89,-2.285891235628938e-06,0.345
O1,0,0,89,-3.3674880342646e-07,0.345
Pz,0,0,89,-4.49826210086097e-06,0.345
POz,0,0,89,-2.4092397652949143e-06,0.345
Oz,0,0,89,3.5726244154049514e-07,0.345
Iz,0,0,89,1.253738811078474e-06,0.345
O2,0,0,90,-1.2977782862851697e-07,0.35
PO4,0,0,90,-2.3538229781985457e-06,0.35
P4,0,0,90,-4.5046244635842625e-06,0.35
P6,0,0,90,-3.2249834369995816e-06,0.35
P2,0,0,90,-4.557908748314326e-06,0.35
P1,0,0,90,-3.319940949057376e-06,0.35
P3,0,0,90,-2.6006992842945878e-06,0.35
P5,0,0,90,-1.5110411157628006e-06,0.35
PO3,0,0,90,-1.7729683966645826e-06,0.35
O1,0,0,90,-2.37263615493912e-07,0.35
Pz,0,0,90,-4.1638223583002374e-06,0.35
POz,0,0,90,-2.165894221967565e-06,0.35
Oz,0,0,90,3.047391328818903e-07,0.35
Iz,0,0,90,1.1244266507158632e-06,0.35
O2,0,0,91,-9.769662648297015e-07,0.355
PO4,0,0,91,-3.2467114821796935e-06,0.355
P4,0,0,91,-4.7176531201647995e-06,0.355
P6,0,0,91,-3.4409927948557316e-06,0.355
P2,0,0,91,-4.9552843005672444e-06,0.355
P1,0,0,91,-3.448755167554043e-06,0.355
P3,0,0,91,-2.7083665999068486e-06,0.355
P5,0,0,91,-1.6326038563472656e-06,0.355
PO3,0,0,91,-2.4059671419577423e-06,0.355
O1,0,0,91,-7.506799414174657e-07,0.355
Pz,0,0,91,-4.5221971563182065e-06,0.355
POz,0,0,91,-3.1636151827015295e-06,0.355
Oz,0,0,91,-6.366708030312501e-07,0.355
Iz,0,0,91,6.07494364525406e-07,0.355
O2,0,0,92,-1.6027430626650196e-06,0.36
PO4,0,0,92,-3.7648815663899176e-06,0.36
P4,0,0,92,-5.078502421014701e-06,0.36
P6,0,0,92,-3.8611416735577086e-06,0.36
P2,0,0,92,-4.960641017158542e-06,0.36
P1,0,0,92,-3.255327482971448e-06,0.36
P3,0,0,92,-2.548015426935678e-06,0.36
P5,0,0,92,-1.6972868182768378e-06,0.36
PO3,0,0,92,-2.655212321221149e-06,0.36
O1,0,0,92,-8.74682736061418e-07,0.36
Pz,0,0,92,-4.408062169170316e-06,0.36
POz,0,0,92,-3.364860488272341e-06,0.36
Oz,0,0,92,-9.403794665503947e-07,0.36
Iz,0,0,92,2.692007753867643e-07,0.36
O2,0,0,93,-1.9407542108252547e-06,0.365
PO4,0,0,93,-3.943776685191809e-06,0.365
P4,0,0,93,-5.280093319532075e-06,0.365
P6,0,0,93,-4.384375498814211e-06,0.365
P2,0,0,93,-4.878914513810924e-06,0.365
P1,0,0,93,-2.648375051843617e-06,0.365
P3,0,0,93,-1.846357701989409e-06,0.365
P5,0,0,93,-1.1929818449064452e-06,0.365
PO3,0,0,93,-1.8621359535978274e-06,0.365
O1,0,0,93,-8.475552221121234e-07,0.365
Pz,0,0,93,-3.9743202822557894e-06,0.365
POz,0,0,93,-3.0001173042548023e-06,0.365
Oz,0,0,93,-9.946266996907206e-07,0.365
Iz,0,0,93,-9.854570190774267e-08,0.365
O2,0,0,94,-2.2236202340442085e-06,0.37
PO4,0,0,94,-3.847621388641425e-06,0.37
P4,0,0,94,-5.085426492360222e-06,0.37
P6,0,0,94,-4.229051452574728e-06,0.37
P2,0,0,94,-4.618177021883433e-06,0.37
P1,0,0,94,-2.217004357289751e-06,0.37
P3,0,0,94,-1.3109595024330256e-06,0.37
P5,0,0,94,-6.687947424772883e-07,0.37
PO3,0,0,94,-1.7469194095202095e-06,0.37
O1,0,0,94,-1.0806977861953827e-06,0.37
Pz,0,0,94,-3.565791641686318e-06,0.37
POz,0,0,94,-3.147752829422173e-06,0.37
Oz,0,0,94,-1.4030627443349428e-06,0.37
Iz,0,0,94,-3.019945157638441e-07,0.37
O2,0,0,95,-2.6253229304008287e-06,0.375
PO4,0,0,95,-3.990538641481646e-06,0.375
P4,0,0,95,-4.952076786069905e-06,0.375
P6,0,0,95,-4.103538473067596e-06,0.375
P2,0,0,95,-4.4597028301647125e-06,0.375
P1,0,0,95,-2.3429846443933084e-06,0.375
P3,0,0,95,-1.6617753325134714e-06,0.375
P5,0,0,95,-9.505801697859125e-07,0.375
PO3,0,0,95,-2.2698071253485034e-06,0.375
O1,0,0,95,-1.156440503232058e-06,0.375
Pz,0,0,95,-3.467054367928639e-06,0.375
POz,0,0,95,-3.2593320354863114e-06,0.375
Oz,0,0,95,-1.6693529858003914e-06,0.375
Iz,0,0,95,-4.215446695136553e-07,0.375
O2,0,0,96,-2.513149845712732e-06,0.38
PO4,0,0,96,-3.872498820626643e-06,0.38
P4,0,0,96,-4.612186221556347e-06,0.38
P6,0,0,96,-3.939547155056025e-06,0.38
P2,0,0,96,-4.202199724699171e-06,0.38
P1,0,0,96,-2.099542173014909e-06,0.38
P3,0,0,96,-1.5064045856586142e-06,0.38
P5,0,0,96,-1.3105406829045515e-06,0.38
PO3,0,0,96,-1.8835589243753926e-06,0.38
O1,0,0,96,-1.3220506929981158e-06,0.38
Pz,0,0,96,-3.1873869999621254e-06,0.38
POz,0,0,96,-2.886096280274283e-06,0.38
Oz,0,0,96,-1.7895541676066783e-06,0.38
Iz,0,0,96,-8.097411690786723e-07,0.38
O2,0,0,97,-2.501891285457459e-06,0.385
PO4,0,0,97,-3.4259267511821255e-06,0.385
P4,0,0,97,-4.274776401228534e-06,0.385
P6,0,0,97,-3.702418833021181e-06,0.385
P2,0,0,97,-3.6800000150895514e-06,0.385
P1,0,0,97,-1.4371503991023209e-06,0.385
P3,0,0,97,-1.0074911372071451e-06,0.385
P5,0,0,97,-8.03755764924263e-07,0.385
PO3,0,0,97,-1.4356128842059686e-06,0.385
O1,0,0,97,-8.833674247279161e-07,0.385
Pz,0,0,97,-2.6196564853628394e-06,0.385
POz,0,0,97,-2.568449981756963e-06,0.385
Oz,0,0,97,-1.6030181084342958e-06,0.385
Iz,0,0,97,-9.571051147110126e-07,0.385
O2,0,0,98,-2.4104070529627563e-06,0.39
PO4,0,0,98,-3.5157628571094927e-06,0.39
P4,0,0,98,-4.13396189735692e-06,0.39
P6,0,0,98,-3.4322766271106286e-06,0.39
P2,0,0,98,-3.5946006301624616e-06,0.39
P1,0,0,98,-1.5468917541046256e-06,0.39
P3,0,0,98,-1.0182949364633057e-06,0.39
P5,0,0,98,-7.813603466838978e-07,0.39
PO3,0,0,98,-1.8605773353839578e-06,0.39
O1,0,0,98,-1.4045214460877564e-06,0.39
Pz,0,0,98,-2.5963238584700863e-06,0.39
POz,0,0,98,-2.718433050084369e-06,0.39
Oz,0,0,98,-1.9541304178768157e-06,0.39
Iz,0,0,98,-1.0244753240964823e-06,0.39
O2,0,0,99,-1.768910323529351e-06,0.395
PO4,0,0,99,-2.6512183827684818e-06,0.395
P4,0,0,99,-3.5326595498860017e-06,0.395
P6,0,0,99,-2.8833133156530524e-06,0.395
P2,0,0,99,-3.0274774603175368e-06,0.395
P1,0,0,99,-1.2591739071644282e-06,0.395
P3,0,0,99,-8.311035178028436e-07,0.395
P5,0,0,99,-7.217561307755217e-07,0.395
PO3,0,0,99,-1.4892046433321598e-06,0.395
O1,0,0,99,-1.1506111189667525e-06,0.395
Pz,0,0,99,-2.1468987501941773e-06,0.395
POz,0,0,99,-2.1308789713445906e-06,0.395
Oz,0,0,99,-1.442527883890835e-06,0.395
Iz,0,0,99,-9.249669197260997e-07,0.395
O2,0,0,100,-1.309267213069361e-06,0.4
PO4,0,0,100,-2.0962181373694944e-06,0.4
P4,0,0,100,-3.017502057185108e-06,0.4
P6,0,0,100,-2.2860378837083606e-06,0.4
P2,0,0,100,-2.573164383583589e-06,0.4
P1,0,0,100,-8.550912203093075e-07,0.4
P3,0,0,100,-4.0219245193298427e-07,0.4
P5,0,0,100,-2.8697974260032545e-07,0.4
PO3,0,0,100,-1.0063604364818333e-06,0.4
O1,0,0,100,-9.846054914367547e-07,0.4
Pz,0,0,100,-1.868946424749665e-06,0.4
POz,0,0,100,-1.607552958617846e-06,0.4
Oz,0,0,100,-1.2350558009661584e-06,0.4
Iz,0,0,100,-9.932670375546645e-07,0.4
O2,0,0,101,-1.2975711482444067e-06,0.405
PO4,0,0,101,-2.1123754612073013e-06,0.405
P4,0,0,101,-2.968211467547208e-06,0.405
P6,0,0,101,-2.26324264949804e-06,0.405
P2,0,0,101,-2.635810555632135e-06,0.405
P1,0,0,101,-1.0416687841220282e-06,0.405
P3,0,0,101,-5.879575057887121e-07,0.405
P5,0,0,101,-4.842893394803683e-07,0.405
PO3,0,0,101,-1.6475274945911086e-06,0.405
O1,0,0,101,-1.4857033978288719e-06,0.405
Pz,0,0,101,-1.853023404618013e-06,0.405
POz,0,0,101,-1.957134521093311e-06,0.405
Oz,0,0,101,-1.5510710994517988e-06,0.405
Iz,0,0,101,-1.1342660998221046e-06,0.405
O2,0,0,102,-8.679980182969068e-07,0.41000000000000003
PO4,0,0,102,-1.7246643436415967e-06,0.41000000000000003
P4,0,0,102,-2.6298461707625823e-06,0.41000000000000003
P6,0,0,102,-1.909161476224627e-06,0.41000000000000003
P2,0,0,102,-2.272420867090507e-06,0.41000000000000003
P1,0,0,102,-9.485009917068879e-07,0.41000000000000003
P3,0,0,102,-6.011575371173094e-07,0.41000000000000003
P5,0,0,102,-4.633633695225445e-07,0.41000000000000003
PO3,0,0,102,-1.3199230975766542e-06,0.41000000000000003
O1,0,0,102,-1.097306386990534e-06,0.41000000000000003
Pz,0,0,102,-1.5965077545267982e-06,0.41000000000000003
POz,0,0,102,-1.5140477982079046e-06,0.41000000000000003
Oz,0,0,102,-1.1438458512921715e-06,0.41000000000000003
Iz,0,0,102,-6.734102753388871e-07,0.41000000000000003
O2,0,0,103,-5.247585454549125e-07,0.41500000000000004
PO4,0,0,103,-1.5579042536410623e-06,0.41500000000000004
P4,0,0,103,-2.7275795065744653e-06,0.41500000000000004
P6,0,0,103,-1.8092003843247938e-06,0.41500000000000004
P2,0,0,103,-2.3204561624867954e-06,0.41500000000000004
P1,0,0,103,-1.0613317880641753e-06,0.41500000000000004
P3,0,0,103,-8.011147435429378e-07,0.41500000000000004
P5,0,0,103,-6.101784726416108e-07,0.41500000000000004
PO3,0,0,103,-1.2425056775690712e-06,0.41500000000000004
O1,0,0,103,-8.276360573628447e-07,0.41500000000000004
Pz,0,0,103,-1.708785500739714e-06,0.41500000000000004
POz,0,0,103,-1.4554589118347e-06,0.41500000000000004
Oz,0,0,103,-7.472001757805282e-07,0.41500000000000004
Iz,0,0,103,-4.229585250928942e-07,0.41500000000000004
O2,0,0,104,-6.5179716708504e-07,0.42000000000000004
PO4,0,0,104,-1.4908655332804547e-06,0.42000000000000004
P4,0,0,104,-2.8581892723323597e-06,0.42000000000000004
P6,0,0,104,-1.8242636366302915e-06,0.42000000000000004
P2,0,0,104,-2.5484830068690048e-06,0.42000000000000004
P1,0,0,104,-1.2364209590211818e-06,0.42000000000000004
P3,0,0,104,-7.962752571129552e-07,0.42000000000000004
P5,0,0,104,-4.5468045075990585e-07,0.42000000000000004
PO3,0,0,104,-1.2495497124637512e-06,0.42000000000000004
O1,0,0,104,-9.548052920601422e-07,0.42000000000000004
Pz,0,0,104,-1.7779816278347536e-06,0.42000000000000004
POz,0,0,104,-1.5506381144075622e-06,0.42000000000000004
Oz,0,0,104,-8.883291073495656e-07,0.42000000000000004
Iz,0,0,104,-5.476279633552928e-07,0.42000000000000004
O2,0,0,105,-4.902504122500162e-07,0.42500000000000004
PO4,0,0,105,-1.60167739255764e-06,0.42500000000000004
P4,0,0,105,-3.012164732797802e-06,0.42500000000000004
P6,0,0,105,-2.234535400799226e-06,0.42500000000000004
P2,0,0,105,-2.702252571951695e-06,0.42500000000000004
P1,0,0,105,-1.2722309301528145e-06,0.42500000000000004
P3,0,0,105,-9.002824820376705e-07,0.42500000000000004
P5,0,0,105,-2.772167744759909e-07,0.42500000000000004
PO3,0,0,105,-1.4061287161494352e-06,0.42500000000000004
O1,0,0,105,-7.790848600294829e-07,0.42500000000000004
Pz,0,0,105,-1.956022846120864e-06,0.42500000000000004
POz,0,0,105,-1.589853208742299e-06,0.42500000000000004
Oz,0,0,105,-6.556961962526836e-07,0.42500000000000004
Iz,0,0,105,-2.48027390692126e-07,0.42500000000000004
O2,0,0,106,-8.152329366344702e-07,0.43000000000000005
PO4,0,0,106,-1.7166762772606041e-06,0.43000000000000005
P4,0,0,106,-3.208651028436789e-06,0.43000000000000005
P6,0,0,106,-2.341477955441377e-06,0.43000000000000005
P2,0,0,106,-2.8819268809371263e-06,0.43000000000000005
P1,0,0,106,-1.427885787596541e-06,0.43000000000000005
P3,0,0,106,-8.697777896511194e-07,0.43000000000000005
P5,0,0,106,-3.3814034647557085e-07,0.43000000000000005
PO3,0,0,106,-1.0935095212051742e-06,0.43000000000000005
O1,0,0,106,-8.440875391347854e-07,0.43000000000000005
Pz,0,0,106,-2.0998569746866617e-06,0.43000000000000005
POz,0,0,106,-1.5325385173947866e-06,0.43000000000000005
Oz,0,0,106,-8.39484070544679e-07,0.43000000000000005
Iz,0,0,106,-6.477428991254392e-07,0.43000000000000005
O2,0,0,107,-5.685680055241767e-07,0.43500000000000005
PO4,0,0,107,-1.834711577954624e-06,0.43500000000000005
P4,0,0,107,-3.2047805007393177e-06,0.43500000000000005
P6,0,0,107,-2.308778538299608e-06,0.43500000000000005
P2,0,0,107,-2.8692746116412223e-06,0.43500000000000005
P1,0,0,107,-1.3852114620885007e-06,0.43500000000000005
P3,0,0,107,-9.53842653697207e-07,0.43500000000000005
P5,0,0,107,-3.595548271290266e-07,0.43500000000000005
PO3,0,0,107,-1.0611701397891184e-06,0.43500000000000005
O1,0,0,107,-3.910762021863417e-07,0.43500000000000005
Pz,0,0,107,-2.0733038268869106e-06,0.43500000000000005
POz,0,0,107,-1.5398381889847634e-06,0.43500000000000005
Oz,0,0,107,-4.863894670222226e-07,0.43500000000000005
Iz,0,0,107,-1.882266918035442e-07,0.43500000000000005
O2,0,0,108,-4.999183501326505e-07,0.44000000000000006
PO4,0,0,108,-1.4323611139238107e-06,0.44000000000000006
P4,0,0,108,-2.847347981261293e-06,0.44000000000000006
P6,0,0,108,-1.791683394974466e-06,0.44000000000000006
P2,0,0,108,-2.5182008987600757e-06,0.44000000000000006
P1,0,0,108,-1.3256848812543136e-06,0.44000000000000006
P3,0,0,108,-9.251468265225341e-07,0.44000000000000006
P5,0,0,108,-4.4775782087479515e-07,0.44000000000000006
PO3,0,0,108,-1.0665164756808398e-06,0.44000000000000006
O1,0,0,108,-2.1027699788151996e-07,0.44000000000000006
Pz,0,0,108,-1.7804029723447296e-06,0.44000000000000006
POz,0,0,108,-1.4732496894815328e-06,0.44000000000000006
Oz,0,0,108,-3.2594773454123475e-07,0.44000000000000006
Iz,0,0,108,8.023111200813446e-08,0.44000000000000006
O2,0,0,109,-3.0018851259691195e-07,0.44500000000000006
PO4,0,0,109,-1.5937003388490733e-06,0.44500000000000006
P4,0,0,109,-3.0561246881954266e-06,0.44500000000000006
P6,0,0,109,-1.8533084373703172e-06,0.44500000000000006
P2,0,0,109,-2.574971363322899e-06,0.44500000000000006
P1,0,0,109,-1.280287312638845e-06,0.44500000000000006
P3,0,0,109,-1.0217105797111662e-06,0.44500000000000006
P5,0,0,109,-5.162800188524987e-07,0.44500000000000006
PO3,0,0,109,-9.441503012690219e-07,0.44500000000000006
O1,0,0,109,-9.585897939135496e-09,0.44500000000000006
Pz,0,0,109,-1.8232063601276298e-06,0.44500000000000006
POz,0,0,109,-1.2407001488734656e-06,0.44500000000000006
Oz,0,0,109,-2.394697032533933e-07,0.44500000000000006
Iz,0,0,109,9.365789468496712e-08,0.44500000000000006
O2,0,0,110,-2.500371734826556e-07,0.45000000000000007
PO4,0,0,110,-1.7744130128995101e-06,0.45000000000000007
P4,0,0,110,-3.0678187108057723e-06,0.45000000000000007
P6,0,0,110,-2.0073348242819382e-06,0.45000000000000007
P2,0,0,110,-2.68374723229551e-06,0.45000000000000007
P1,0,0,110,-1.3682553350445124e-06,0.45000000000000007
P3,0,0,110,-9.283846156782852e-07,0.45000000000000007
P5,0,0,110,-5.119807149734804e-07,0.45000000000000007
PO3,0,0,110,-8.18873451710869e-07,0.45000000000000007
O1,0,0,110,1.3284912022794703e-07,0.45000000000000007
Pz,0,0,110,-1.8332127782361545e-06,0.45000000000000007
POz,0,0,110,-1.3379411466057807e-06,0.45000000000000007
Oz,0,0,110,2.2243998404412764e-08,0.45000000000000007
Iz,0,0,110,8.783988186469749e-07,0.45000000000000007
O2,0,0,111,-3.8919746467938504e-07,0.45500000000000007
PO4,0,0,111,-1.901375107904534e-06,0.45500000000000007
P4,0,0,111,-3.3321327818328172e-06,0.45500000000000007
P6,0,0,111,-2.1954867865056254e-06,0.45500000000000007
P2,0,0,111,-2.7522939453030047e-06,0.45500000000000007
P1,0,0,111,-1.1236103211277965e-06,0.45500000000000007
P3,0,0,111,-8.306006629120681e-07,0.45500000000000007
P5,0,0,111,-5.954036977881155e-07,0.45500000000000007
PO3,0,0,111,-8.309615749874652e-07,0.45500000000000007
O1,0,0,111,-9.967403946941001e-08,0.45500000000000007
Pz,0,0,111,-1.8676765877049574e-06,0.45500000000000007
POz,0,0,111,-1.4208898323220758e-06,0.45500000000000007
Oz,0,0,111,-2.082674531687584e-07,0.45500000000000007
Iz,0,0,111,5.398959395414155e-07,0.45500000000000007
O2,0,0,112,-9.351326316459125e-07,0.4600000000000001
PO4,0,0,112,-2.288815652531245e-06,0.4600000000000001
P4,0,0,112,-3.568099587087037e-06,0.4600000000000001
P6,0,0,112,-2.4331508592180987e-06,0.4600000000000001
P2,0,0,112,-3.0617412237327292e-06,0.4600000000000001
P1,0,0,112,-1.1561523332823381e-06,0.4600000000000001
P3,0,0,112,-7.236557989323301e-07,0.4600000000000001
P5,0,0,112,-2.609536512122118e-07,0.4600000000000001
PO3,0,0,112,-9.72852388116756e-07,0.4600000000000001
O1,0,0,112,-1.6821606727426824e-07,0.4600000000000001
Pz,0,0,112,-1.997706822711756e-06,0.4600000000000001
POz,0,0,112,-1.7616249185496079e-06,0.4600000000000001
Oz,0,0,112,-5.833124921092029e-07,0.4600000000000001
Iz,0,0,112,3.002728105960229e-07,0.4600000000000001
O2,0,0,113,-7.801727724443017e-07,0.4650000000000001
PO4,0,0,113,-2.2580815444743617e-06,0.4650000000000001
P4,0,0,113,-3.666582276967009e-06,0.4650000000000001
P6,0,0,113,-2.43478267708511e-06,0.4650000000000001
P2,0,0,113,-3.0982545391148365e-06,0.4650000000000001
P1,0,0,113,-1.1117625362840075e-06,0.4650000000000001
P3,0,0,113,-8.170312385341925e-07,0.4650000000000001
P5,0,0,113,-3.123175044496317e-07,0.4650000000000001
PO3,0,0,113,-1.023716976895414e-06,0.4650000000000001
O1,0,0,113,-1.6154239233949776e-07,0.4650000000000001
Pz,0,0,113,-2.04173499155623e-06,0.4650000000000001
POz,0,0,113,-1.6385325746658999e-06,0.4650000000000001
Oz,0,0,113,-3.710730214199491e-07,0.4650000000000001
Iz,0,0,113,5.839217612444062e-07,0.4650000000000001
O2,0,0,114,-9.448899227526277e-07,0.4700000000000001
PO4,0,0,114,-2.383976318905967e-06,0.4700000000000001
P4,0,0,114,-3.80803439864269e-06,0.4700000000000001
P6,0,0,114,-2.7708460416217394e-06,0.4700000000000001
P2,0,0,114,-3.096964224441443e-06,0.4700000000000001
P1,0,0,114,-1.0196392842153682e-06,0.4700000000000001
P3,0,0,114,-6.222291503585966e-07,0.4700000000000001
P5,0,0,114,-9.853473321011037e-08,0.4700000000000001
PO3,0,0,114,-9.693105341088292e-07,0.4700000000000001
O1,0,0,114,-8.247940845139307e-08,0.4700000000000001
Pz,0,0,114,-2.0402618245316383e-06,0.4700000000000001
POz,0,0,114,-1.6174385659848776e-06,0.4700000000000001
Oz,0,0,114,-3.968508376428647e-07,0.4700000000000001
Iz,0,0,114,7.664039619335253e-07,0.4700000000000001
O2,0,0,115,-6.395999497718655e-07,0.4750000000000001
PO4,0,0,115,-1.9874271180672452e-06,0.4750000000000001
P4,0,0,115,-3.514450116362041e-06,0.4750000000000001
P6,0,0,115,-2.5287847575650975e-06,0.4750000000000001
P2,0,0,115,-2.7946971275119797e-06,0.4750000000000001
P1,0,0,115,-7.670125393738136e-07,0.4750000000000001
P3,0,0,115,-2.8153705660794485e-07,0.4750000000000001
P5,0,0,115,2.993759232354458e-07,0.4750000000000001
PO3,0,0,115,-6.187110351971651e-07,0.4750000000000001
O1,0,0,115,2.432652893974503e-07,0.4750000000000001
Pz,0,0,115,-1.6364142427345219e-06,0.4750000000000001
POz,0,0,115,-1.3070384744428235e-06,0.4750000000000001
Oz,0,0,115,-7.484568586474032e-08,0.4750000000000001
Iz,0,0,115,1.1649105837012618e-06,0.4750000000000001
O2,0,0,116,-5.561414749563429e-07,0.48
PO4,0,0,116,-1.9994194465392397e-06,0.48
P4,0,0,116,-3.528945785745716e-06,0.48
P6,0,0,116,-2.7796644513810485e-06,0.48
P2,0,0,116,-2.5845889203187235e-06,0.48
P1,0,0,116,-5.371455140654716e-07,0.48
P3,0,0,116,3.7136799210714293e-09,0.48
P5,0,0,116,5.813743078220165e-07,0.48
PO3,0,0,116,-3.004867696000774e-07,0.48
O1,0,0,116,3.487892910180619e-07,0.48
Pz,0,0,116,-1.4269237370037484e-06,0.48
POz,0,0,116,-1.1430404149502166e-06,0.48
Oz,0,0,116,-2.6164237582380495e-08,0.48
Iz,0,0,116,1.017668758351303e-06,0.48
O2,0,0,117,-5.031228054812054e-07,0.485
PO4,0,0,117,-1.5494443023967074e-06,0.485
P4,0,0,117,-2.97477944632046e-06,0.485
P6,0,0,117,-2.5306595948508805e-06,0.485
P2,0,0,117,-2.2083394950562433e-06,0.485
P1,0,0,117,-3.243614126177779e-07,0.485
P3,0,0,117,-2.7954569818212395e-09,0.485
P5,0,0,117,5.525509048646826e-07,0.485
PO3,0,0,117,-2.2408690878653015e-07,0.485
O1,0,0,117,7.29397974885048e-07,0.485
Pz,0,0,117,-9.966926888098877e-07,0.485
POz,0,0,117,-7.656448570521082e-07,0.485
Oz,0,0,117,3.787612395176139e-07,0.485
Iz,0,0,117,1.1006445178242845e-06,0.485
O2,0,0,118,-4.947113443760518e-07,0.49
PO4,0,0,118,-1.627584561783568e-06,0.49
P4,0,0,118,-3.076929955311152e-06,0.49
P6,0,0,118,-2.542938091385148e-06,0.49
P2,0,0,118,-2.330514055646396e-06,0.49
P1,0,0,118,-4.891434896923573e-07,0.49
P3,0,0,118,-1.8227023386337367e-07,0.49
P5,0,0,118,4.680545421323955e-07,0.49
PO3,0,0,118,-4.914437871975814e-07,0.49
O1,0,0,118,4.006461925579412e-07,0.49
Pz,0,0,118,-1.237707189676756e-06,0.49
POz,0,0,118,-9.464848512488087e-07,0.49
Oz,0,0,118,4.969039302779832e-08,0.49
Iz,0,0,118,9.072632175959476e-07,0.49
O2,0,0,119,-5.346342397824954e-07,0.495
PO4,0,0,119,-2.0186663421732143e-06,0.495
P4,0,0,119,-3.63089507764368e-06,0.495
P6,0,0,119,-3.138577648915388e-06,0.495
P2,0,0,119,-2.731098730015497e-06,0.495
P1,0,0,119,-8.025407352139047e-07,0.495
P3,0,0,119,-4.0748740809906884e-07,0.495
P5,0,0,119,4.123287635355994e-07,0.495
PO3,0,0,119,-6.320095845878413e-07,0.495
O1,0,0,119,6.04128775672893e-08,0.495
Pz,0,0,119,-1.5317891257306849e-06,0.495
POz,0,0,119,-1.2731917427120509e-06,0.495
Oz,0,0,119,-3.623923364474004e-07,0.495
Iz,0,0,119,5.673330848706694e-07,0.495
O2,0,0,120,-7.258096536601057e-08,0.5
PO4,0,0,120,-1.6633525049335405e-06,0.5
P4,0,0,120,-3.4899001286872655e-06,0.5
P6,0,0,120,-2.8713294569462748e-06,0.5
P2,0,0,120,-2.594745843849533e-06,0.5
P1,0,0,120,-6.678276706455389e-07,0.5
P3,0,0,120,-5.670266815192517e-07,0.5
P5,0,0,120,1.4157018575673476e-07,0.5
PO3,0,0,120,-6.148697455191116e-07,0.5
O1,0,0,120,2.7664765282657545e-07,0.5
Pz,0,0,120,-1.323434330808984e-06,0.5
POz,0,0,120,-8.237626314474127e-07,0.5
Oz,0,0,120,1.2645996102512845e-07,0.5
Iz,0,0,120,1.0568479852764191e-06,0.5
O2,0,0,121,-8.085819333884447e-08,0.505
PO4,0,0,121,-1.4657957089111776e-06,0.505
P4,0,0,121,-3.360942338080252e-06,0.505
P6,0,0,121,-2.7856914667046188e-06,0.505
P2,0,0,121,-2.3681242918627293e-06,0.505
P1,0,0,121,-4.7301630885561327e-07,0.505
P3,0,0,121,-2.5497577711406384e-07,0.505
P5,0,0,121,3.875895099920069e-07,0.505
PO3,0,0,121,-3.27667387058924e-07,0.505
O1,0,0,121,2.682137840030721e-07,0.505
Pz,0,0,121,-1.0824850468111587e-06,0.505
POz,0,0,121,-6.87552242691544e-07,0.505
Oz,0,0,121,1.1599559265272336e-07,0.505
Iz,0,0,121,6.879493061801469e-07,0.505
O2,0,0,122,-1.6085333243600238e-07,0.51
PO4,0,0,122,-1.813513022310574e-06,0.51
P4,0,0,122,-3.783336176935752e-06,0.51
P6,0,0,122,-3.110026648057519e-06,0.51
P2,0,0,122,-2.7056226613753676e-06,0.51
P1,0,0,122,-5.52573017275799e-07,0.51
P3,0,0,122,-3.894173578011173e-07,0.51
P5,0,0,122,1.0695335955747902e-07,0.51
PO3,0,0,122,-6.140110533325469e-07,0.51
O1,0,0,122,-1.1509837248447601e-07,0.51
Pz,0,0,122,-1.347567698260246e-06,0.51
POz,0,0,122,-1.015801208045737e-06,0.51
Oz,0,0,122,-2.1575822617487937e-07,0.51
Iz,0,0,122,5.870918610985252e-07,0.51
O2,0,0,123,1.745372291427016e-07,0.515
PO4,0,0,123,-1.4226756191981194e-06,0.515
P4,0,0,123,-3.4896751714192848e-06,0.515
P6,0,0,123,-2.6770918625835855e-06,0.515
P2,0,0,123,-2.248170575703043e-06,0.515
P1,0,0,123,-2.983895308486147e-07,0.515
P3,0,0,123,-2.2548280404840988e-07,0.515
P5,0,0,123,7.734087246239897e-08,0.515
PO3,0,0,123,-4.5569412067795394e-07,0.515
O1,0,0,123,2.7763884568643157e-07,0.515
Pz,0,0,123,-1.1533334848667745e-06,0.515
POz,0,0,123,-6.214798775385376e-07,0.515
Oz,0,0,123,4.0788973609504406e-07,0.515
Iz,0,0,123,1.2954111935920108e-06,0.515
O2,0,0,124,4.7300519752755226e-08,0.52
PO4,0,0,124,-1.2747930009208697e-06,0.52
P4,0,0,124,-3.330658979439093e-06,0.52
P6,0,0,124,-2.6367004250878456e-06,0.52
P2,0,0,124,-2.2355299367323923e-06,0.52
P1,0,0,124,2.2814707421780744e-07,0.52
P3,0,0,124,4.4749943399235607e-07,0.52
P5,0,0,124,8.176397050438378e-07,0.52
PO3,0,0,124,3.8565317259668355e-07,0.52
O1,0,0,124,7.411046922765581e-07,0.52
Pz,0,0,124,-8.230885410576306e-07,0.52
POz,0,0,124,-2.796957347291586e-07,0.52
Oz,0,0,124,3.321268393138552e-07,0.52
Iz,0,0,124,8.63245530553504e-07,0.52
O2,0,0,125,1.1458519730066854e-07,0.525
PO4,0,0,125,-1.4534043141572768e-06,0.525
P4,0,0,125,-3.5047578468506634e-06,0.525
P6,0,0,125,-2.6823781184314713e-06,0.525
P2,0,0,125,-2.4931891089658878e-06,0.525
P1,0,0,125,7.378318077940986e-08,0.525
P3,0,0,125,5.02293631243523e-07,0.525
P5,0,0,125,9.276110531163707e-07,0.525
PO3,0,0,125,3.144262696062195e-07,0.525
O1,0,0,125,9.365125941035149e-07,0.525
Pz,0,0,125,-1.1937611390228882e-06,0.525
POz,0,0,125,-6.219541875418896e-07,0.525
Oz,0,0,125,5.983737014039518e-07,0.525
Iz,0,0,125,1.2801994904079977e-06,0.525
O2,0,0,126,4.112597861810336e-07,0.53
PO4,0,0,126,-1.2675243904991183e-06,0.53
P4,0,0,126,-3.310065525780353e-06,0.53
P6,0,0,126,-2.555206787140119e-06,0.53
P2,0,0,126,-2.4629462498916675e-06,0.53
P1,0,0,126,9.170384794318065e-08,0.53
P3,0,0,126,6.707434027168741e-07,0.53
P5,0,0,126,1.013475636995132e-06,0.53
PO3,0,0,126,6.197497896466737e-07,0.53
O1,0,0,126,1.6235098880233884e-06,0.53
Pz,0,0,126,-1.0020930014533954e-06,0.53
POz,0,0,126,-2.878311159000939e-07,0.53
Oz,0,0,126,1.2114721059311144e-06,0.53
Iz,0,0,126,1.9973266243354123e-06,0.53
O2,0,0,127,5.761255792342058e-07,0.535
PO4,0,0,127,-9.982455227202459e-07,0.535
P4,0,0,127,-3.3121455295122507e-06,0.535
P6,0,0,127,-2.4580639886149028e-06,0.535
P2,0,0,127,-2.2040103465220324e-06,0.535
P1,0,0,127,2.936467894587081e-07,0.535
P3,0,0,127,7.041197536931986e-07,0.535
P5,0,0,127,9.245460808150367e-07,0.535
PO3,0,0,127,1.0223960517714163e-06,0.535
O1,0,0,127,1.9028621192095049e-06,0.535
Pz,0,0,127,-7.675047887560416e-07,0.535
POz,0,0,127,3.7989532939645436e-07,0.535
Oz,0,0,127,1.6159893761148397e-06,0.535
Iz,0,0,127,2.198965951348681e-06,0.535
O2,0,0,128,4.3341321528099665e-07,0.54
PO4,0,0,128,-1.3490033572477331e-06,0.54
P4,0,0,128,-3.4231157015130085e-06,0.54
P6,0,0,128,-2.6522983777101994e-06,0.54
P2,0,0,128,-2.3614819014780904e-06,0.54
P1,0,0,128,1.464341885389724e-07,0.54
P3,0,0,128,6.391627587411484e-07,0.54
P5,0,0,128,9.191252657627143e-07,0.54
PO3,0,0,128,8.514317864256947e-07,0.54
O1,0,0,128,1.565227064825427e-06,0.54
Pz,0,0,128,-9.557559938885693e-07,0.54
POz,0,0,128,-7.786082672326431e-08,0.54
Oz,0,0,128,1.1768039713016644e-06,0.54
Iz,0,0,128,1.9607184713594036e-06,0.54
O2,0,0,129,2.290393082035648e-07,0.545
PO4,0,0,129,-1.5182028855853988e-06,0.545
P4,0,0,129,-3.646245833354419e-06,0.545
P6,0,0,129,-2.728214146673714e-06,0.545
P2,0,0,129,-2.4929689160407995e-06,0.545
P1,0,0,129,-4.4893606825641784e-08,0.545
P3,0,0,129,1.9232039707271214e-07,0.545
P5,0,0,129,4.1132140785527635e-07,0.545
PO3,0,0,129,4.014812011054023e-07,0.545
O1,0,0,129,1.3080445142318616e-06,0.545
Pz,0,0,129,-1.069802831226955e-06,0.545
POz,0,0,129,-2.847319802332559e-07,0.545
Oz,0,0,129,1.13499914837406e-06,0.545
Iz,0,0,129,2.214318886610231e-06,0.545
O2,0,0,130,-5.386148669338239e-08,0.55
PO4,0,0,130,-1.3242224764455963e-06,0.55
P4,0,0,130,-3.632658521323336e-06,0.55
P6,0,0,130,-2.9397834753138508e-06,0.55
P2,0,0,130,-2.2839920128109937e-06,0.55
P1,0,0,130,1.885245847313967e-07,0.55
P3,0,0,130,4.0417237175666996e-07,0.55
P5,0,0,130,6.331263605599307e-07,0.55
PO3,0,0,130,7.759854267029212e-07,0.55
O1,0,0,130,1.4348011715308831e-06,0.55
Pz,0,0,130,-7.765521481327925e-07,0.55
POz,0,0,130,1.2277357030609157e-07,0.55
Oz,0,0,130,1.1200888336571713e-06,0.55
Iz,0,0,130,1.6166980001305609e-06,0.55
O2,0,0,131,2.4742629833821767e-07,0.555
PO4,0,0,131,-1.4261826834575962e-06,0.555
P4,0,0,131,-3.55402629003341e-06,0.555
P6,0,0,131,-2.891565234938498e-06,0.555
P2,0,0,131,-2.3253977137069327e-06,0.555
P1,0,0,131,1.0410565094401097e-07,0.555
P3,0,0,131,3.74643734641907e-08,0.555
P5,0,0,131,2.308980095099951e-07,0.555
PO3,0,0,131,5.167132262142003e-07,0.555
O1,0,0,131,1.1853628271889884e-06,0.555
Pz,0,0,131,-7.626459380193639e-07,0.555
POz,0,0,131,4.7209107495207893e-08,0.555
Oz,0,0,131,1.0804172848772528e-06,0.555
Iz,0,0,131,1.8708123652338967e-06,0.555
O2,0,0,132,4.804222105352401e-07,0.56
PO4,0,0,132,-1.3386812017971646e-06,0.56
P4,0,0,132,-3.459906738610754e-06,0.56
P6,0,0,132,-2.8023414657066175e-06,0.56
P2,0,0,132,-2.1712438179946823e-06,0.56
P1,0,0,132,6.981962604228384e-08,0.56
P3,0,0,132,4.8441154124569926e-08,0.56
P5,0,0,132,2.0599661016312762e-07,0.56
PO3,0,0,132,4.826744098276565e-07,0.56
O1,0,0,132,1.4794792039674199e-06,0.56
Pz,0,0,132,-8.265694774613856e-07,0.56
POz,0,0,132,4.7010966974102824e-08,0.56
Oz,0,0,132,1.219203093120571e-06,0.56
Iz,0,0,132,2.2673170499072216e-06,0.56
O2,0,0,133,7.408793712080053e-07,0.5650000000000001
PO4,0,0,133,-8.944740937570181e-07,0.5650000000000001
P4,0,0,133,-3.057158147291688e-06,0.5650000000000001
P6,0,0,133,-2.408705372819543e-06,0.5650000000000001
P2,0,0,133,-1.8553020418985077e-06,0.5650000000000001
P1,0,0,133,8.42408403206599e-08,0.5650000000000001
P3,0,0,133,-5.1036633016944703e-08,0.5650000000000001
P5,0,0,133,1.7374076369113538e-07,0.5650000000000001
PO3,0,0,133,8.385415022118311e-07,0.5650000000000001
O1,0,0,133,1.730004506665252e-06,0.5650000000000001
Pz,0,0,133,-4.821009772427689e-07,0.5650000000000001
POz,0,0,133,5.381058793032273e-07,0.5650000000000001
Oz,0,0,133,1.69500796368864e-06,0.5650000000000001
Iz,0,0,133,2.410140387199584e-06,0.5650000000000001
O2,0,0,134,5.32973156040859e-07,0.5700000000000001
PO4,0,0,134,-8.562401024230374e-07,0.5700000000000001
P4,0,0,134,-2.9460234529303448e-06,0.5700000000000001
P6,0,0,134,-2.2665057766427024e-06,0.5700000000000001
P2,0,0,134,-1.733190935853172e-06,0.5700000000000001
P1,0,0,134,2.420236400612814e-07,0.5700000000000001
P3,0,0,134,-1.2026678340909135e-07,0.5700000000000001
P5,0,0,134,7.636398728828446e-08,0.5700000000000001
PO3,0,0,134,6.423670365093286e-07,0.5700000000000001
O1,0,0,134,1.3368888614887903e-06,0.5700000000000001
Pz,0,0,134,-4.391245452301859e-07,0.5700000000000001
POz,0,0,134,4.4107590923593834e-07,0.5700000000000001
Oz,0,0,134,1.3076947908253008e-06,0.5700000000000001
Iz,0,0,134,2.0836808959083313e-06,0.5700000000000001
O2,0,0,135,3.027189926131403e-07,0.5750000000000001
PO4,0,0,135,-1.4886815182164285e-06,0.5750000000000001
P4,0,0,135,-3.3827772903302967e-06,0.5750000000000001
P6,0,0,135,-2.607701605528629e-06,0.5750000000000001
P2,0,0,135,-2.092963911560887e-06,0.5750000000000001
P1,0,0,135,-3.2414532749995573e-07,0.5750000000000001
P3,0,0,135,-5.142218780300063e-07,0.5750000000000001
P5,0,0,135,-2.9671954820319815e-07,0.5750000000000001
PO3,0,0,135,5.1096352133472536e-08,0.5750000000000001
O1,0,0,135,1.045652461477235e-06,0.5750000000000001
Pz,0,0,135,-8.652286783173651e-07,0.5750000000000001
POz,0,0,135,-2.9085346753130906e-07,0.5750000000000001
Oz,0,0,135,7.566710074592112e-07,0.5750000000000001
Iz,0,0,135,1.9469094306367905e-06,0.5750000000000001
O2,0,0,136,6.827576466864598e-08,0.5800000000000001
PO4,0,0,136,-1.2222622121650893e-06,0.5800000000000001
P4,0,0,136,-3.4105932965907613e-06,0.5800000000000001
P6,0,0,136,-2.5427939198626036e-06,0.5800000000000001
P2,0,0,136,-2.1579162217975806e-06,0.5800000000000001
P1,0,0,136,1.0088008428543679e-08,0.5800000000000001
P3,0,0,136,-1.6154229307914648e-07,0.5800000000000001
P5,0,0,136,1.4255347008882528e-07,0.5800000000000001
PO3,0,0,136,2.8454993230753665e-07,0.5800000000000001
O1,0,0,136,1.4064852547693938e-06,0.5800000000000001
Pz,0,0,136,-6.841459986739365e-07,0.5800000000000001
POz,0,0,136,3.71768855650931e-08,0.5800000000000001
Oz,0,0,136,1.1303728065445446e-06,0.5800000000000001
Iz,0,0,136,1.9210081212626755e-06,0.5800000000000001
O2,0,0,137,4.545348136485975e-07,0.5850000000000001
PO4,0,0,137,-1.1680979622541526e-06,0.5850000000000001
P4,0,0,137,-3.306508573515657e-06,0.5850000000000001
P6,0,0,137,-2.7291404001662373e-06,0.5850000000000001
P2,0,0,137,-1.9871479935420006e-06,0.5850000000000001
P1,0,0,137,1.0290145243209508e-07,0.5850000000000001
P3,0,0,137,-1.8211252909186922e-09,0.5850000000000001
P5,0,0,137,2.2819300659251318e-07,0.5850000000000001
PO3,0,0,137,4.348410280213246e-07,0.5850000000000001
O1,0,0,137,1.2472394984756573e-06,0.5850000000000001
Pz,0,0,137,-5.510078915961337e-07,0.5850000000000001
POz,0,0,137,2.6318657809278583e-07,0.5850000000000001
Oz,0,0,137,1.113724974781805e-06,0.5850000000000001
Iz,0,0,137,1.9390232252480433e-06,0.5850000000000001
O2,0,0,138,2.2276242659820895e-07,0.5900000000000001
PO4,0,0,138,-1.5303481847977334e-06,0.5900000000000001
P4,0,0,138,-3.37997139229807e-06,0.5900000000000001
P6,0,0,138,-2.6501561745802456e-06,0.5900000000000001
P2,0,0,138,-2.091580871833314e-06,0.5900000000000001
P1,0,0,138,1.311207491305177e-08,0.5900000000000001
P3,0,0,138,-3.39373170859909e-09,0.5900000000000001
P5,0,0,138,3.9152855031434054e-07,0.5900000000000001
PO3,0,0,138,2.980949048240432e-07,0.5900000000000001
O1,0,0,138,1.027997177579467e-06,0.5900000000000001
Pz,0,0,138,-7.33961136745881e-07,0.5900000000000001
POz,0,0,138,-1.588928878839829e-07,0.5900000000000001
Oz,0,0,138,7.153056860035514e-07,0.5900000000000001
Iz,0,0,138,1.4589244244318024e-06,0.5900000000000001
O2,0,0,139,-3.9126108027537674e-08,0.5950000000000001
PO4,0,0,139,-1.4055832011164123e-06,0.5950000000000001
P4,0,0,139,-3.385229024719851e-06,0.5950000000000001
P6,0,0,139,-2.7821577911875006e-06,0.5950000000000001
P2,0,0,139,-2.196974066585882e-06,0.5950000000000001
P1,0,0,139,2.5772873758776976e-07,0.5950000000000001
P3,0,0,139,4.1683763120281876e-07,0.5950000000000001
P5,0,0,139,8.704683453537985e-07,0.5950000000000001
PO3,0,0,139,4.650901571232223e-07,0.5950000000000001
O1,0,0,139,1.304126907547338e-06,0.5950000000000001
Pz,0,0,139,-7.004643387709866e-07,0.5950000000000001
POz,0,0,139,-6.19323190081149e-08,0.5950000000000001
Oz,0,0,139,9.335985967928902e-07,0.5950000000000001
Iz,0,0,139,1.455295457040481e-06,0.5950000000000001
O2,0,0,140,6.154267033362829e-09,0.6000000000000001
PO4,0,0,140,-1.3543933593907433e-06,0.6000000000000001
P4,0,0,140,-3.6224184460074903e-06,0.6000000000000001
P6,0,0,140,-3.1049744507232715e-06,0.6000000000000001
P2,0,0,140,-2.1661070341295768e-06,0.6000000000000001
P1,0,0,140,4.499750399344845e-07,0.6000000000000001
P3,0,0,140,6.589004156331554e-07,0.6000000000000001
P5,0,0,140,1.1119221764659239e-06,0.6000000000000001
PO3,0,0,140,1.1813601032666172e-06,0.6000000000000001
O1,0,0,140,1.4556256667380846e-06,0.6000000000000001
Pz,0,0,140,-4.983580895608949e-07,0.6000000000000001
POz,0,0,140,3.227965088925447e-07,0.6000000000000001
Oz,0,0,140,8.985347871478875e-07,0.6000000000000001
Iz,0,0,140,1.3294381458250113e-06,0.6000000000000001
O2,0,0,141,-1.8386348085173277e-07,0.605
PO4,0,0,141,-1.532767183958721e-06,0.605
P4,0,0,141,-3.8067629770225383e-06,0.605
P6,0,0,141,-2.9700544265021243e-06,0.605
P2,0,0,141,-2.3470133570696276e-06,0.605
P1,0,0,141,3.889167948020367e-07,0.605
P3,0,0,141,6.458973793915384e-07,0.605
P5,0,0,141,1.2235244715544628e-06,0.605
PO3,0,0,141,1.0392243033565978e-06,0.605
O1,0,0,141,1.439422973204815e-06,0.605
Pz,0,0,141,-7.438027655124424e-07,0.605
POz,0,0,141,8.00840764335181e-08,0.605
Oz,0,0,141,7.518698963258394e-07,0.605
Iz,0,0,141,1.3488869709203746e-06,0.605
O2,0,0,142,1.9441993578430822e-07,0.61
PO4,0,0,142,-1.5542507695450125e-06,0.61
P4,0,0,142,-3.791281116564257e-06,0.61
P6,0,0,142,-2.905870047311393e-06,0.61
P2,0,0,142,-2.4760040604128727e-06,0.61
P1,0,0,142,1.589539390149375e-07,0.61
P3,0,0,142,4.7420471285095396e-07,0.61
P5,0,0,142,1.09807041921244e-06,0.61
PO3,0,0,142,8.69816928704006e-07,0.61
O1,0,0,142,1.6121545146359387e-06,0.61
Pz,0,0,142,-9.46624279426625e-07,0.61
POz,0,0,142,-6.800036085137289e-08,0.61
Oz,0,0,142,1.1837688682310934e-06,0.61
Iz,0,0,142,1.890837288945876e-06,0.61
O2,0,0,143,9.046094495251835e-08,0.615
PO4,0,0,143,-1.3173622091916453e-06,0.615
P4,0,0,143,-3.898152852574921e-06,0.615
P6,0,0,143,-3.122680617467876e-06,0.615
P2,0,0,143,-2.4740908199687905e-06,0.615
P1,0,0,143,4.386139193486829e-07,0.615
P3,0,0,143,7.625011773261489e-07,0.615
P5,0,0,143,1.4761245919980404e-06,0.615
PO3,0,0,143,1.5325919520440082e-06,0.615
O1,0,0,143,1.6708321720337792e-06,0.615
Pz,0,0,143,-8.135955950718275e-07,0.615
POz,0,0,143,4.753938887082892e-07,0.615
Oz,0,0,143,1.1758944929396566e-06,0.615
Iz,0,0,143,1.3224289127234217e-06,0.615
O2,0,0,144,3.0885599607618845e-07,0.62
PO4,0,0,144,-1.419034226467758e-06,0.62
P4,0,0,144,-4.0414350845962085e-06,0.62
P6,0,0,144,-3.199755957688716e-06,0.62
P2,0,0,144,-2.5906044513962e-06,0.62
P1,0,0,144,3.0744290532351725e-07,0.62
P3,0,0,144,8.460939991563651e-07,0.62
P5,0,0,144,1.281923836807416e-06,0.62
PO3,0,0,144,1.5427443861266388e-06,0.62
O1,0,0,144,1.951311862711396e-06,0.62
Pz,0,0,144,-8.678687318368733e-07,0.62
POz,0,0,144,3.171130991159915e-07,0.62
Oz,0,0,144,1.2666795347639072e-06,0.62
Iz,0,0,144,1.5073098537690509e-06,0.62
O2,0,0,145,6.042533249196735e-07,0.625
PO4,0,0,145,-1.396889349591938e-06,0.625
P4,0,0,145,-3.862325976842425e-06,0.625
P6,0,0,145,-2.717960583190117e-06,0.625
P2,0,0,145,-2.5524342439755246e-06,0.625
P1,0,0,145,1.0099582226950296e-07,0.625
P3,0,0,145,4.425253072455293e-07,0.625
P5,0,0,145,7.880621065324581e-07,0.625
PO3,0,0,145,1.0875469147693523e-06,0.625
O1,0,0,145,1.647135507125799e-06,0.625
Pz,0,0,145,-9.988946119352403e-07,0.625
POz,0,0,145,1.8387219140155656e-07,0.625
Oz,0,0,145,1.4268649355072391e-06,0.625
Iz,0,0,145,2.0333106459821708e-06,0.625
O2,0,0,146,1.0782547780340941e-06,0.63
PO4,0,0,146,-1.013248213766493e-06,0.63
P4,0,0,146,-3.5600535087836913e-06,0.63
P6,0,0,146,-2.600849496660664e-06,0.63
P2,0,0,146,-2.3724390821493184e-06,0.63
P1,0,0,146,1.6704468267895399e-07,0.63
P3,0,0,146,4.802201857549715e-07,0.63
P5,0,0,146,7.857960283910583e-07,0.63
PO3,0,0,146,1.2511086369308782e-06,0.63
O1,0,0,146,2.2583088447086383e-06,0.63
Pz,0,0,146,-8.200199080324307e-07,0.63
POz,0,0,146,6.673032165501863e-07,0.63
Oz,0,0,146,2.00748616014745e-06,0.63
Iz,0,0,146,2.315201213407669e-06,0.63
O2,0,0,147,9.46501606778701e-07,0.635
PO4,0,0,147,-8.41210556166453e-07,0.635
P4,0,0,147,-3.2875953938938897e-06,0.635
P6,0,0,147,-2.2765395298330453e-06,0.635
P2,0,0,147,-2.1704536841662234e-06,0.635
P1,0,0,147,1.6904279107039664e-07,0.635
P3,0,0,147,3.578451388715196e-07,0.635
P5,0,0,147,6.676615958877109e-07,0.635
PO3,0,0,147,1.2362935889206502e-06,0.635
O1,0,0,147,2.0700520306390314e-06,0.635
Pz,0,0,147,-8.043469285306527e-07,0.635
POz,0,0,147,7.077804698640861e-07,0.635
Oz,0,0,147,1.7001870563240556e-06,0.635
Iz,0,0,147,1.8910717348588454e-06,0.635
O2,0,0,148,1.0377357330222335e-06,0.64
PO4,0,0,148,-9.689315585179404e-07,0.64
P4,0,0,148,-3.3830411781211292e-06,0.64
P6,0,0,148,-2.5020666806183734e-06,0.64
P2,0,0,148,-2.347365623412438e-06,0.64
P1,0,0,148,-7.032924788720489e-08,0.64
P3,0,0,148,2.196541361773464e-08,0.64
P5,0,0,148,2.374599093840244e-07,0.64
PO3,0,0,148,8.462685944976223e-07,0.64
O1,0,0,148,1.8071622531229634e-06,0.64
Pz,0,0,148,-9.385555087107421e-07,0.64
POz,0,0,148,3.657323707247873e-07,0.64
Oz,0,0,148,1.6412854446887534e-06,0.64
Iz,0,0,148,2.2344410726430632e-06,0.64
O2,0,0,149,1.091324517374245e-06,0.645
PO4,0,0,149,-5.791616792147819e-07,0.645
P4,0,0,149,-2.8631532019344014e-06,0.645
P6,0,0,149,-1.9369917131008034e-06,0.645
P2,0,0,149,-1.944831345377324e-06,0.645
P1,0,0,149,2.842436792356555e-07,0.645
P3,0,0,149,3.26771399137886e-07,0.645
P5,0,0,149,3.910250199724798e-07,0.645
PO3,0,0,149,1.0846274886214026e-06,0.645
O1,0,0,149,2.146983062612108e-06,0.645
Pz,0,0,149,-6.104446782417333e-07,0.645
POz,0,0,149,6.829430617262243e-07,0.645
Oz,0,0,149,1.8351711303357218e-06,0.645
Iz,0,0,149,2.344414745253673e-06,0.645
O2,0,0,150,6.924170655898293e-07,0.65
PO4,0,0,150,-9.328085139994995e-07,0.65
P4,0,0,150,-2.7510192068921184e-06,0.65
P6,0,0,150,-2.160253795843986e-06,0.65
P2,0,0,150,-1.826281534079741e-06,0.65
P1,0,0,150,2.987460060335973e-07,0.65
P3,0,0,150,2.5432268135620716e-07,0.65
P5,0,0,150,-2.4221331032555627e-08,0.65
PO3,0,0,150,5.773316310836805e-07,0.65
O1,0,0,150,1.2827984724996594e-06,0.65
Pz,0,0,150,-6.947315172913718e-07,0.65
POz,0,0,150,4.207657434931977e-07,0.65
Oz,0,0,150,1.3349403330406254e-06,0.65
Iz,0,0,150,1.7608478004374628e-06,0.65
O2,0,0,151,4.646016815171267e-07,0.655
PO4,0,0,151,-1.2010370087555883e-06,0.655
P4,0,0,151,-2.9990866774524254e-06,0.655
P6,0,0,151,-2.5104962895194115e-06,0.655
P2,0,0,151,-1.9606082645528053e-06,0.655
P1,0,0,151,4.0308183378028655e-07,0.655
P3,0,0,151,5.361771183277416e-07,0.655
P5,0,0,151,3.6264783039736984e-07,0.655
PO3,0,0,151,5.471678981616105e-07,0.655
O1,0,0,151,1.2414968204152242e-06,0.655
Pz,0,0,151,-6.830316472424837e-07,0.655
POz,0,0,151,8.933816858789939e-08,0.655
Oz,0,0,151,1.0154009422185073e-06,0.655
Iz,0,0,151,1.710646656202489e-06,0.655
O2,0,0,152,3.396701527682847e-07,0.66
PO4,0,0,152,-9.645542432021296e-07,0.66
P4,0,0,152,-2.513477712559372e-06,0.66
P6,0,0,152,-2.2705885283173737e-06,0.66
P2,0,0,152,-1.6811327131404144e-06,0.66
P1,0,0,152,5.840173101264077e-07,0.66
P3,0,0,152,4.549113931633239e-07,0.66
P5,0,0,152,8.539995673142353e-08,0.66
PO3,0,0,152,4.504633746029357e-07,0.66
O1,0,0,152,1.1031038860993104e-06,0.66
Pz,0,0,152,-4.954990155095718e-07,0.66
POz,0,0,152,2.4538923622813836e-07,0.66
Oz,0,0,152,1.0283110730798392e-06,0.66
Iz,0,0,152,1.3686632252430294e-06,0.66
O2,0,0,153,1.0718831758748219e-07,0.665
PO4,0,0,153,-8.673450142015153e-07,0.665
P4,0,0,153,-2.3687183978308872e-06,0.665
P6,0,0,153,-2.2845853900557905e-06,0.665
P2,0,0,153,-1.3197066483280432e-06,0.665
P1,0,0,153,1.0320025251346024e-06,0.665
P3,0,0,153,8.618881856115932e-07,0.665
P5,0,0,153,2.494820776933669e-07,0.665
PO3,0,0,153,8.157814182754884e-07,0.665
O1,0,0,153,1.1075749038172916e-06,0.665
Pz,0,0,153,1.6641638398821908e-08,0.665
POz,0,0,153,6.355386598007902e-07,0.665
Oz,0,0,153,9.737384618892518e-07,0.665
Iz,0,0,153,1.2849919662341642e-06,0.665
O2,0,0,154,2.8937823921802806e-07,0.67
PO4,0,0,154,-8.081552079250595e-07,0.67
P4,0,0,154,-2.2809750339236664e-06,0.67
P6,0,0,154,-2.189438877732454e-06,0.67
P2,0,0,154,-1.1901383119825506e-06,0.67
P1,0,0,154,1.1735868662273077e-06,0.67
P3,0,0,154,1.104766152448328e-06,0.67
P5,0,0,154,7.948469960917756e-07,0.67
PO3,0,0,154,1.0184713664162184e-06,0.67
O1,0,0,154,1.2800984308099588e-06,0.67
Pz,0,0,154,3.7942888457044686e-08,0.67
POz,0,0,154,6.593214054875977e-07,0.67
Oz,0,0,154,1.0461426928582365e-06,0.67
Iz,0,0,154,1.3836635603153107e-06,0.67
O2,0,0,155,-1.4309237345493681e-07,0.675
PO4,0,0,155,-1.04878439653507e-06,0.675
P4,0,0,155,-2.3975782263285723e-06,0.675
P6,0,0,155,-2.3848032169582037e-06,0.675
P2,0,0,155,-1.2981194204576433e-06,0.675
P1,0,0,155,1.0865358434187674e-06,0.675
P3,0,0,155,1.1235760776550553e-06,0.675
P5,0,0,155,6.770574394987954e-07,0.675
PO3,0,0,155,9.284997234132755e-07,0.675
O1,0,0,155,1.1065659309927175e-06,0.675
Pz,0,0,155,6.367069647877012e-08,0.675
POz,0,0,155,4.736949859250551e-07,0.675
Oz,0,0,155,6.776768846764363e-07,0.675
Iz,0,0,155,8.497754762666979e-07,0.675
O2,0,0,156,9.37729497766463e-08,0.68
PO4,0,0,156,-8.2300911148325e-07,0.68
P4,0,0,156,-2.197053650061776e-06,0.68
P6,0,0,156,-2.1718070387525515e-06,0.68
P2,0,0,156,-1.1355400766784366e-06,0.68
P1,0,0,156,1.0742162021406593e-06,0.68
P3,0,0,156,1.0955760490994533e-06,0.68
P5,0,0,156,6.334300009953109e-07,0.68
PO3,0,0,156,9.99597186648426e-07,0.68
O1,0,0,156,1.1859961938318003e-06,0.68
Pz,0,0,156,1.9440505489867836e-07,0.68
POz,0,0,156,6.672231011664574e-07,0.68
Oz,0,0,156,7.752291083142315e-07,0.68
Iz,0,0,156,6.891422651575108e-07,0.68
O2,0,0,157,7.318848944464525e-07,0.685
PO4,0,0,157,-3.4499389665714205e-07,0.685
P4,0,0,157,-2.009692123779439e-06,0.685
P6,0,0,157,-1.694287253014737e-06,0.685
P2,0,0,157,-8.801534715368396e-07,0.685
P1,0,0,157,1.1326823953465662e-06,0.685
P3,0,0,157,1.24842273883872e-06,0.685
P5,0,0,157,1.0625294576520117e-06,0.685
PO3,0,0,157,1.2012384107095517e-06,0.685
O1,0,0,157,1.428712696609382e-06,0.685
Pz,0,0,157,2.9812880188429395e-07,0.685
POz,0,0,157,9.038370301224697e-07,0.685
Oz,0,0,157,1.3159151405660944e-06,0.685
Iz,0,0,157,1.5622603553328225e-06,0.685
O2,0,0,158,4.770257628374678e-07,0.6900000000000001
PO4,0,0,158,-3.878906330635202e-07,0.6900000000000001
P4,0,0,158,-1.9210645434099643e-06,0.6900000000000001
P6,0,0,158,-1.6730389539887662e-06,0.6900000000000001
P2,0,0,158,-9.8853439305935e-07,0.6900000000000001
P1,0,0,158,1.1822660843718135e-06,0.6900000000000001
P3,0,0,158,1.3853267075343203e-06,0.6900000000000001
P5,0,0,158,1.2822909597227411e-06,0.6900000000000001
PO3,0,0,158,1.3559313543979967e-06,0.6900000000000001
O1,0,0,158,1.458120497347429e-06,0.6900000000000001
Pz,0,0,158,2.938026414123486e-07,0.6900000000000001
POz,0,0,158,9.132291581906038e-07,0.6900000000000001
Oz,0,0,158,1.1037105061760652e-06,0.6900000000000001
Iz,0,0,158,1.0455172547414913e-06,0.6900000000000001
O2,0,0,159,1.094691253027602e-06,0.6950000000000001
PO4,0,0,159,-8.454671761995881e-08,0.6950000000000001
P4,0,0,159,-1.946239649384685e-06,0.6950000000000001
P6,0,0,159,-1.3556824813238252e-06,0.6950000000000001
P2,0,0,159,-8.89329788171907e-07,0.6950000000000001
P1,0,0,159,1.2067877669867717e-06,0.6950000000000001
P3,0,0,159,1.4583570625235642e-06,0.6950000000000001
P5,0,0,159,1.5156733133300233e-06,0.6950000000000001
PO3,0,0,159,1.549273000609614e-06,0.6950000000000001
O1,0,0,159,1.914883312615311e-06,0.6950000000000001
Pz,0,0,159,2.814474844662452e-07,0.6950000000000001
POz,0,0,159,1.1730918760697305e-06,0.6950000000000001
Oz,0,0,159,1.563702221837339e-06,0.6950000000000001
Iz,0,0,159,1.5334255300158354e-06,0.6950000000000001
O2,0,0,160,1.495932856926766e-06,0.7000000000000001
PO4,0,0,160,2.9228399030628684e-07,0.7000000000000001
P4,0,0,160,-1.5660259985351537e-06,0.7000000000000001
P6,0,0,160,-8.039870630912553e-07,0.7000000000000001
P2,0,0,160,-7.529160554297513e-07,0.7000000000000001
P1,0,0,160,9.672107419128268e-07,0.7000000000000001
P3,0,0,160,1.0484386571579428e-06,0.7000000000000001
P5,0,0,160,7.738595459214375e-07,0.7000000000000001
PO3,0,0,160,1.3747150608529788e-06,0.7000000000000001
O1,0,0,160,1.5799708438488195e-06,0.7000000000000001
Pz,0,0,160,2.7664993663934763e-07,0.7000000000000001
POz,0,0,160,1.2345790381227298e-06,0.7000000000000001
Oz,0,0,160,1.698701019353022e-06,0.7000000000000001
Iz,0,0,160,1.452801586150914e-06,0.7000000000000001
O2,0,1,0,-7.206737854088953e-07,-0.1
PO4,0,1,0,-1.4863699973725628e-06,-0.1
P4,0,1,0,-2.2125467901875167e-06,-0.1
P6,0,1,0,-1.8810108676658143e-06,-0.1
P2,0,1,0,-2.117116551355907e-06,-0.1
P1,0,1,0,-1.2853191714381053e-06,-0.1
P3,0,1,0,-6.549980966742606e-07,-0.1
P5,0,1,0,2.0895532753544659e-07,-0.1
PO3,0,1,0,-5.761293061746016e-07,-0.1
O1,0,1,0,2.3696212593840054e-07,-0.1
Pz,0,1,0,-1.5832103561459307e-06,-0.1
POz,0,1,0,-1.1136993090104356e-06,-0.1
Oz,0,1,0,-2.1780488509794736e-07,-0.1
Iz,0,1,0,4.869630994634774e-07,-0.1
O2,0,1,1,-9.084168350002962e-07,-0.095
PO4,0,1,1,-1.4360676195033617e-06,-0.095
P4,0,1,1,-2.123381576258855e-06,-0.095
P6,0,1,1,-1.658656639102282e-06,-0.095
P2,0,1,1,-2.1122344976254885e-06,-0.095
P1,0,1,1,-1.5169244088395713e-06,-0.095
P3,0,1,1,-9.391956953437622e-07,-0.095
P5,0,1,1,-2.8914788839257614e-07,-0.095
PO3,0,1,1,-8.655708473653248e-07,-0.095
O1,0,1,1,-3.373949134615415e-07,-0.095
Pz,0,1,1,-1.8253152946192452e-06,-0.095
POz,0,1,1,-1.1820971942908564e-06,-0.095
Oz,0,1,1,-2.876145358455033e-07,-0.095
Iz,0,1,1,4.943452148870478e-07,-0.095
O2,0,1,2,-1.2367954229050895e-06,-0.09000000000000001
PO4,0,1,2,-1.5932480492563843e-06,-0.09000000000000001
P4,0,1,2,-2.3347985081375897e-06,-0.09000000000000001
P6,0,1,2,-1.8256357179264772e-06,-0.09000000000000001
P2,0,1,2,-2.3500128480713163e-06,-0.09000000000000001
P1,0,1,2,-1.5457599936173023e-06,-0.09000000000000001
P3,0,1,2,-9.289558704128982e-07,-0.09000000000000001
P5,0,1,2,-2.9305567440913355e-08,-0.09000000000000001
PO3,0,1,2,-9.000911886478392e-07,-0.09000000000000001
O1,0,1,2,-4.0774143520612466e-07,-0.09000000000000001
Pz,0,1,2,-2.0708181831226395e-06,-0.09000000000000001
POz,0,1,2,-1.3951418772725927e-06,-0.09000000000000001
Oz,0,1,2,-5.812600598428057e-07,-0.09000000000000001
Iz,0,1,2,2.685863101056792e-07,-0.09000000000000001
O2,0,1,3,-1.27225772254585e-06,-0.085
PO4,0,1,3,-2.035513496526274e-06,-0.085
P4,0,1,3,-2.5590521479999134e-06,-0.085
P6,0,1,3,-2.083182162895793e-06,-0.085
P2,0,1,3,-2.7117726068691434e-06,-0.085
P1,0,1,3,-1.7699334137719542e-06,-0.085
P3,0,1,3,-1.041168355229023e-06,-0.085
P5,0,1,3,-2.3578698281213903e-07,-0.085
PO3,0,1,3,-1.1518032222644312e-06,-0.085
O1,0,1,3,-5.678587445814702e-07,-0.085
Pz,0,1,3,-2.3547231440674604e-06,-0.085
POz,0,1,3,-1.7294711331363966e-06,-0.085
Oz,0,1,3,-8.078882413149837e-07,-0.085
Iz,0,1,3,2.856858869742559e-08,-0.085
O2,0,1,4,-1.5999862674105666e-06,-0.08
PO4,0,1,4,-2.220668783035742e-06,-0.08
P4,0,1,4,-2.595659758690217e-06,-0.08
P6,0,1,4,-2.0894263628141003e-06,-0.08
P2,0,1,4,-2.7257105028451155e-06,-0.08
P1,0,1,4,-1.7764026475140298e-06,-0.08
P3,0,1,4,-1.0598389895312267e-06,-0.08
P5,0,1,4,-1.4898643197662786e-07,-0.08
PO3,0,1,4,-1.1548371144468358e-06,-0.08
O1,0,1,4,-1.0054256965280064e-06,-0.08
Pz,0,1,4,-2.359953884034828e-06,-0.08
POz,0,1,4,-1.8709793176480204e-06,-0.08
Oz,0,1,4,-1.1721277064181519e-06,-0.08
Iz,0,1,4,-5.334163730092596e-07,-0.08
O2,0,1,5,-1.4668369654437343e-06,-0.07500000000000001
PO4,0,1,5,-2.05309414053441e-06,-0.07500000000000001
P4,0,1,5,-2.3244655147679264e-06,-0.07500000000000001
P6,0,1,5,-1.7358551684590766e-06,-0.07500000000000001
P2,0,1,5,-2.6438471202994726e-06,-0.07500000000000001
P1,0,1,5,-1.8649126754418868e-06,-0.07500000000000001
P3,0,1,5,-1.0752486239261937e-06,-0.07500000000000001
P5,0,1,5,-4.020450551256368e-07,-0.07500000000000001
PO3,0,1,5,-1.2789891163418776e-06,-0.07500000000000001
O1,0,1,5,-1.177085497578288e-06,-0.07500000000000001
Pz,0,1,5,-2.454778641002719e-06,-0.07500000000000001
POz,0,1,5,-1.8938261441010876e-06,-0.07500000000000001
Oz,0,1,5,-1.0745920366594625e-06,-0.07500000000000001
Iz,0,1,5,-3.3023350969882313e-07,-0.07500000000000001
O2,0,1,6,-1.269254485026762e-06,-0.07
PO4,0,1,6,-1.730359293560023e-06,-0.07
P4,0,1,6,-2.001810572832847e-06,-0.07
P6,0,1,6,-1.4228990774071072e-06,-0.07
P2,0,1,6,-2.294298957663914e-06,-0.07
P1,0,1,6,-1.8866030692407675e-06,-0.07
P3,0,1,6,-1.1853913720599752e-06,-0.07
P5,0,1,6,-2.256908565514974e-07,-0.07
PO3,0,1,6,-1.2159306135820087e-06,-0.07
O1,0,1,6,-7.761417580405233e-07,-0.07
Pz,0,1,6,-2.367768138792505e-06,-0.07
POz,0,1,6,-1.6613808090259154e-06,-0.07
Oz,0,1,6,-7.88659725326195e-07,-0.07
Iz,0,1,6,-3.145626126329631e-08,-0.07
O2,0,1,7,-9.228159371552687e-07,-0.065
PO4,0,1,7,-1.615311146002153e-06,-0.065
P4,0,1,7,-1.8258700718511857e-06,-0.065
P6,0,1,7,-1.0686166324531033e-06,-0.065
P2,0,1,7,-2.1884587851199337e-06,-0.065
P1,0,1,7,-1.8976475931064792e-06,-0.065
P3,0,1,7,-1.3103521735155585e-06,-0.065
P5,0,1,7,-4.0039487844292826e-07,-0.065
PO3,0,1,7,-1.1430898515057948e-06,-0.065
O1,0,1,7,-7.335091209009121e-07,-0.065
Pz,0,1,7,-2.288219786606298e-06,-0.065
POz,0,1,7,-1.6003233804679066e-06,-0.065
Oz,0,1,7,-6.629237428089402e-07,-0.065
Iz,0,1,7,2.539443415279968e-07,-0.065
O2,0,1,8,-9.008766144140228e-07,-0.060000000000000005
PO4,0,1,8,-1.6022660267926377e-06,-0.060000000000000005
P4,0,1,8,-1.6923941569901342e-06,-0.060000000000000005
P6,0,1,8,-1.095580400115482e-06,-0.060000000000000005
P2,0,1,8,-2.1716064878075477e-06,-0.060000000000000005
P1,0,1,8,-1.7052821402932024e-06,-0.060000000000000005
P3,0,1,8,-1.1028125791109438e-06,-0.060000000000000005
P5,0,1,8,-1.3008781503596408e-07,-0.060000000000000005
PO3,0,1,8,-1.0605744837319967e-06,-0.060000000000000005
O1,0,1,8,-6.885901150649794e-07,-0.060000000000000005
Pz,0,1,8,-2.097428862959755e-06,-0.060000000000000005
POz,0,1,8,-1.5185730376474257e-06,-0.060000000000000005
Oz,0,1,8,-7.003282362883742e-07,-0.060000000000000005
Iz,0,1,8,2.2388909367312625e-08,-0.060000000000000005
O2,0,1,9,-8.565284732388254e-07,-0.05500000000000001
PO4,0,1,9,-1.8638419957741348e-06,-0.05500000000000001
P4,0,1,9,-2.041855510368586e-06,-0.05500000000000001
P6,0,1,9,-1.3430261047259436e-06,-0.05500000000000001
P2,0,1,9,-2.512941339007859e-06,-0.05500000000000001
P1,0,1,9,-1.9559078980281785e-06,-0.05500000000000001
P3,0,1,9,-1.306008058135657e-06,-0.05500000000000001
P5,0,1,9,-3.075027156389229e-07,-0.05500000000000001
PO3,0,1,9,-1.2559375410624276e-06,-0.05500000000000001
O1,0,1,9,-8.694845292139649e-07,-0.05500000000000001
Pz,0,1,9,-2.5011396175093617e-06,-0.05500000000000001
POz,0,1,9,-1.8331079531198306e-06,-0.05500000000000001
Oz,0,1,9,-8.103380201448231e-07,-0.05500000000000001
Iz,0,1,9,-1.2890484946590958e-07,-0.05500000000000001
O2,0,1,10,-1.05849876649127e-06,-0.05
PO4,0,1,10,-1.7463567736789756e-06,-0.05
P4,0,1,10,-2.1045539548553684e-06,-0.05
P6,0,1,10,-1.33534533683729e-06,-0.05
P2,0,1,10,-2.629252520861073e-06,-0.05
P1,0,1,10,-2.0325034496815063e-06,-0.05
P3,0,1,10,-1.3708967583276696e-06,-0.05
P5,0,1,10,-1.920202317322609e-07,-0.05
PO3,0,1,10,-1.0246982733229797e-06,-0.05
O1,0,1,10,-6.722294557835081e-07,-0.05
Pz,0,1,10,-2.4651829327420746e-06,-0.05
POz,0,1,10,-1.7225316711435812e-06,-0.05
Oz,0,1,10,-7.479689778430291e-07,-0.05
Iz,0,1,10,-6.790876655620814e-08,-0.05
O2,0,1,11,-8.484646952167034e-07,-0.045000000000000005
PO4,0,1,11,-1.5397621902485704e-06,-0.045000000000000005
P4,0,1,11,-1.8150533177440868e-06,-0.045000000000000005
P6,0,1,11,-9.640945643327853e-07,-0.045000000000000005
P2,0,1,11,-2.440980170762111e-06,-0.045000000000000005
P1,0,1,11,-1.9373616848831947e-06,-0.045000000000000005
P3,0,1,11,-1.3801675107227698e-06,-0.045000000000000005
P5,0,1,11,-1.6858463271334437e-07,-0.045000000000000005
PO3,0,1,11,-1.1143303651439264e-06,-0.045000000000000005
O1,0,1,11,-6.44999742662998e-07,-0.045000000000000005
Pz,0,1,11,-2.411544483176157e-06,-0.045000000000000005
POz,0,1,11,-1.665319085975089e-06,-0.045000000000000005
Oz,0,1,11,-6.99595847798296e-07,-0.045000000000000005
Iz,0,1,11,1.5402542118100096e-07,-0.045000000000000005
O2,0,1,12,-8.060664309321778e-07,-0.04000000000000001
PO4,0,1,12,-1.6657486038668972e-06,-0.04000000000000001
P4,0,1,12,-1.9211225691635317e-06,-0.04000000000000001
P6,0,1,12,-9.541988660384443e-07,-0.04000000000000001
P2,0,1,12,-2.5731275736743923e-06,-0.04000000000000001
P1,0,1,12,-2.2058236180565484e-06,-0.04000000000000001
P3,0,1,12,-1.7209762654963296e-06,-0.04000000000000001
P5,0,1,12,-5.168176956264612e-07,-0.04000000000000001
PO3,0,1,12,-1.4164351299870045e-06,-0.04000000000000001
O1,0,1,12,-7.218403201604397e-07,-0.04000000000000001
Pz,0,1,12,-2.5482690851751255e-06,-0.04000000000000001
POz,0,1,12,-1.7923469093685495e-06,-0.04000000000000001
Oz,0,1,12,-6.148386801857289e-07,-0.04000000000000001
Iz,0,1,12,2.0480951373915925e-07,-0.04000000000000001
O2,0,1,13,-7.020966033250615e-07,-0.035
PO4,0,1,13,-1.604889545276133e-06,-0.035
P4,0,1,13,-1.8588271616781378e-06,-0.035
P6,0,1,13,-1.1015350301242764e-06,-0.035
P2,0,1,13,-2.463269330760734e-06,-0.035
P1,0,1,13,-2.127713766099791e-06,-0.035
P3,0,1,13,-1.5180899403986601e-06,-0.035
P5,0,1,13,-3.432036172631615e-07,-0.035
PO3,0,1,13,-1.3242790058728547e-06,-0.035
O1,0,1,13,-5.236229642739779e-07,-0.035
Pz,0,1,13,-2.5273661107780152e-06,-0.035
POz,0,1,13,-1.671240386364996e-06,-0.035
Oz,0,1,13,-5.14499415066644e-07,-0.035
Iz,0,1,13,1.9434360047780254e-07,-0.035
O2,0,1,14,-8.231026790214504e-07,-0.03
PO4,0,1,14,-1.6233896091157145e-06,-0.03
P4,0,1,14,-1.9511273552318224e-06,-0.03
P6,0,1,14,-1.0291700997591659e-06,-0.03
P2,0,1,14,-2.5220371338715216e-06,-0.03
P1,0,1,14,-2.095746051534281e-06,-0.03
P3,0,1,14,-1.401132943821243e-06,-0.03
P5,0,1,14,-1.4706810932329218e-07,-0.03
PO3,0,1,14,-1.1388731183891177e-06,-0.03
O1,0,1,14,-4.0573139544262596e-07,-0.03
Pz,0,1,14,-2.568613714554554e-06,-0.03
POz,0,1,14,-1.7149333489881827e-06,-0.03
Oz,0,1,14,-5.276011829386637e-07,-0.03
Iz,0,1,14,3.9077278698163256e-07,-0.03
O2,0,1,15,-6.430153362337283e-07,-0.02500000000000001
PO4,0,1,15,-1.592815473395743e-06,-0.02500000000000001
P4,0,1,15,-2.10200301506797e-06,-0.02500000000000001
P6,0,1,15,-1.0056046160970166e-06,-0.02500000000000001
P2,0,1,15,-2.5308011403398977e-06,-0.02500000000000001
P1,0,1,15,-2.161368657322342e-06,-0.02500000000000001
P3,0,1,15,-1.4428143731681074e-06,-0.02500000000000001
P5,0,1,15,3.117242548389472e-08,-0.02500000000000001
PO3,0,1,15,-9.76629431791307e-07,-0.02500000000000001
O1,0,1,15,-2.3052954793880421e-07,-0.02500000000000001
Pz,0,1,15,-2.647768424294808e-06,-0.02500000000000001
POz,0,1,15,-1.5489521687807035e-06,-0.02500000000000001
Oz,0,1,15,-3.7496148386425355e-07,-0.02500000000000001
Iz,0,1,15,6.562146058065279e-07,-0.02500000000000001
O2,0,1,16,-5.321736967965255e-07,-0.020000000000000004
PO4,0,1,16,-1.5891396069705177e-06,-0.020000000000000004
P4,0,1,16,-2.2196525592793062e-06,-0.020000000000000004
P6,0,1,16,-1.0623027579454045e-06,-0.020000000000000004
P2,0,1,16,-2.7272925750088887e-06,-0.020000000000000004
P1,0,1,16,-2.45452496908104e-06,-0.020000000000000004
P3,0,1,16,-1.6545923715664835e-06,-0.020000000000000004
P5,0,1,16,-1.8369341026927387e-07,-0.020000000000000004
PO3,0,1,16,-1.1327895821605673e-06,-0.020000000000000004
O1,0,1,16,-1.4463021608509892e-07,-0.020000000000000004
Pz,0,1,16,-2.82836354940275e-06,-0.020000000000000004
POz,0,1,16,-1.6986430792470147e-06,-0.020000000000000004
Oz,0,1,16,-3.25875569919937e-07,-0.020000000000000004
Iz,0,1,16,9.13101930723707e-07,-0.020000000000000004
O2,0,1,17,-8.935608997351998e-07,-0.015
PO4,0,1,17,-1.7870182893378194e-06,-0.015
P4,0,1,17,-2.5453937521050266e-06,-0.015
P6,0,1,17,-1.565216294858611e-06,-0.015
P2,0,1,17,-2.925080015993989e-06,-0.015
P1,0,1,17,-2.628217748266376e-06,-0.015
P3,0,1,17,-1.7493256918905828e-06,-0.015
P5,0,1,17,-1.7948176816520168e-07,-0.015
PO3,0,1,17,-1.1884152331558016e-06,-0.015
O1,0,1,17,-1.9619363654984807e-07,-0.015
Pz,0,1,17,-2.9660213701345485e-06,-0.015
POz,0,1,17,-1.8970573667918783e-06,-0.015
Oz,0,1,17,-4.498531998697932e-07,-0.015
Iz,0,1,17,7.831987281846636e-07,-0.015
O2,0,1,18,-9.832832830077703e-07,-0.010000000000000009
PO4,0,1,18,-2.1618608986914396e-06,-0.010000000000000009
P4,0,1,18,-2.874675936172723e-06,-0.010000000000000009
P6,0,1,18,-2.0572964039529667e-06,-0.010000000000000009
P2,0,1,18,-3.2467679819818e-06,-0.010000000000000009
P1,0,1,18,-2.7410111933751762e-06,-0.010000000000000009
P3,0,1,18,-1.7409553999206467e-06,-0.010000000000000009
P5,0,1,18,-2.195789279158668e-07,-0.010000000000000009
PO3,0,1,18,-1.339859411481424e-06,-0.010000000000000009
O1,0,1,18,-3.2215670914792106e-07,-0.010000000000000009
Pz,0,1,18,-3.032995097731159e-06,-0.010000000000000009
POz,0,1,18,-2.0581177607263632e-06,-0.010000000000000009
Oz,0,1,18,-4.720190321724074e-07,-0.010000000000000009
Iz,0,1,18,8.332868305911849e-07,-0.010000000000000009
O2,0,1,19,-1.0299017992930164e-06,-0.0050000000000000044
PO4,0,1,19,-2.3121620588291625e-06,-0.0050000000000000044
P4,0,1,19,-3.1254435588088847e-06,-0.0050000000000000044
P6,0,1,19,-2.2956853804736754e-06,-0.0050000000000000044
P2,0,1,19,-3.5650908878452813e-06,-0.0050000000000000044
P1,0,1,19,-2.8652670533667027e-06,-0.0050000000000000044
P3,0,1,19,-1.8318597062506253e-06,-0.0050000000000000044
P5,0,1,19,-2.3064611932705127e-07,-0.0050000000000000044
PO3,0,1,19,-1.2452292136037748e-06,-0.0050000000000000044
O1,0,1,19,-9.501824876085026e-09,-0.0050000000000000044
Pz,0,1,19,-3.3206143099969672e-06,-0.0050000000000000044
POz,0,1,19,-2.1246914600250223e-06,-0.0050000000000000044
Oz,0,1,19,-3.9589389293861014e-07,-0.0050000000000000044
Iz,0,1,19,9.473661769508597e-07,-0.0050000000000000044
O2,0,1,20,-1.1121548632626918e-06,0.0
PO4,0,1,20,-2.409483750742201e-06,0.0
P4,0,1,20,-3.2229883654177587e-06,0.0
P6,0,1,20,-2.1107600906581463e-06,0.0
P2,0,1,20,-3.671509240685704e-06,0.0
P1,0,1,20,-2.8873229144987514e-06,0.0
P3,0,1,20,-1.903841655247448e-06,0.0
P5,0,1,20,-2.6832455991037754e-07,0.0
PO3,0,1,20,-1.4409743074517967e-06,0.0
O1,0,1,20,-2.496191552335974e-07,0.0
Pz,0,1,20,-3.448901032495578e-06,0.0
POz,0,1,20,-2.2839190362856376e-06,0.0
Oz,0,1,20,-4.473751061465684e-07,0.0
Iz,0,1,20,1.0716948934642198e-06,0.0
O2,0,1,21,-9.42100512866953e-07,0.0049999999999999906
PO4,0,1,21,-2.613709934189969e-06,0.0049999999999999906
P4,0,1,21,-3.7525190220366425e-06,0.0049999999999999906
P6,0,1,21,-2.626684671829131e-06,0.0049999999999999906
P2,0,1,21,-4.077588108187719e-06,0.0049999999999999906
P1,0,1,21,-2.873057389784747e-06,0.0049999999999999906
P3,0,1,21,-1.6564911046016783e-06,0.0049999999999999906
P5,0,1,21,1.4397264975723402e-07,0.0049999999999999906
PO3,0,1,21,-1.294520246204738e-06,0.0049999999999999906
O1,0,1,21,1.8688367048379516e-07,0.0049999999999999906
Pz,0,1,21,-3.6312012050620597e-06,0.0049999999999999906
POz,0,1,21,-2.445605780585364e-06,0.0049999999999999906
Oz,0,1,21,-1.944130052377903e-07,0.0049999999999999906
Iz,0,1,21,1.5322086581262286e-06,0.0049999999999999906
O2,0,1,22,-1.4435182238651855e-06,0.009999999999999995
PO4,0,1,22,-3.1412419479505174e-06,0.009999999999999995
P4,0,1,22,-4.170621173120884e-06,0.009999999999999995
P6,0,1,22,-3.1479108464920695e-06,0.009999999999999995
P2,0,1,22,-4.453482417617535e-06,0.009999999999999995
P1,0,1,22,-2.909736238448186e-06,0.009999999999999995
P3,0,1,22,-1.6422412504083347e-06,0.009999999999999995
P5,0,1,22,4.388641585847836e-07,0.009999999999999995
PO3,0,1,22,-1.1712994777313317e-06,0.009999999999999995
O1,0,1,22,-1.4545483633115255e-07,0.009999999999999995
Pz,0,1,22,-3.852968285225468e-06,0.009999999999999995
POz,0,1,22,-2.620378167287921e-06,0.009999999999999995
Oz,0,1,22,-4.6026923420211954e-07,0.009999999999999995
Iz,0,1,22,1.1392138721861714e-06,0.009999999999999995
O2,0,1,23,-1.866374830921525e-06,0.015
PO4,0,1,23,-3.2173482104274614e-06,0.015
P4,0,1,23,-4.209607211967404e-06,0.015
P6,0,1,23,-3.1236009490513535e-06,0.015
P2,0,1,23,-4.4772893340633944e-06,0.015
P1,0,1,23,-2.9427661218633123e-06,0.015
P3,0,1,23,-1.6815743836079012e-06,0.015
P5,0,1,23,2.24611842574183e-07,0.015
PO3,0,1,23,-1.3824936230494578e-06,0.015
O1,0,1,23,-6.468452652718946e-07,0.015
Pz,0,1,23,-3.915924253749951e-06,0.015
POz,0,1,23,-2.8746520102520287e-06,0.015
Oz,0,1,23,-9.110716235641697e-07,0.015
Iz,0,1,23,6.347197667030213e-07,0.015
O2,0,1,24,-1.6110528666255783e-06,0.01999999999999999
PO4,0,1,24,-3.404360427742159e-06,0.01999999999999999
P4,0,1,24,-4.3248124942811585e-06,0.01999999999999999
P6,0,1,24,-3.2629738200977407e-06,0.01999999999999999
P2,0,1,24,-4.625200198522607e-06,0.01999999999999999
P1,0,1,24,-3.26853636384685e-06,0.01999999999999999
P3,0,1,24,-1.9317121047786473e-06,0.01999999999999999
P5,0,1,24,-2.768707868428406e-07,0.01999999999999999
PO3,0,1,24,-1.5142895523881194e-06,0.01999999999999999
O1,0,1,24,-2.860956071662286e-07,0.01999999999999999
Pz,0,1,24,-4.0206050889005755e-06,0.01999999999999999
POz,0,1,24,-2.976226264698857e-06,0.01999999999999999
Oz,0,1,24,-7.319506650808946e-07,0.01999999999999999
Iz,0,1,24,1.0350326184835211e-06,0.01999999999999999
O2,0,1,25,-2.021562442211573e-06,0.024999999999999994
PO4,0,1,25,-3.3642968925651246e-06,0.024999999999999994
P4,0,1,25,-4.193000360878319e-06,0.024999999999999994
P6,0,1,25,-3.0891938103750024e-06,0.024999999999999994
P2,0,1,25,-4.621945815853337e-06,0.024999999999999994
P1,0,1,25,-3.482861497024887e-06,0.024999999999999994
P3,0,1,25,-2.1065232963115987e-06,0.024999999999999994
P5,0,1,25,-3.7708688815931894e-07,0.024999999999999994
PO3,0,1,25,-1.8748892902768323e-06,0.024999999999999994
